timestamp,eeg1,eeg2,eeg3,eeg4,eeg5(aux)
1578460524.665378,0.0,0.0,-0.48828125,0.0,0.0
1578460524.665378,0.0,0.0,0.0,0.0,0.0
1578460524.665378,-27.34375,-1.46484375,7.32421875,-35.64453125,0.0
1578460524.665378,59.08203125,2.44140625,-16.6015625,135.7421875,0.0
1578460524.665378,-336.9140625,-19.04296875,103.515625,-533.69140625,0.0
1578460524.665378,-885.7421875,-52.24609375,268.5546875,-315.4296875,0.0
1578460524.665378,-852.5390625,-76.171875,297.8515625,947.75390625,0.0
1578460524.665378,-842.7734375,-104.98046875,433.59375,-825.68359375,0.0
1578460524.665378,-857.421875,-83.984375,383.7890625,75.1953125,0.0
1578460524.665378,-856.4453125,-46.38671875,169.43359375,-812.01171875,0.0
1578460524.665378,-854.00390625,-60.546875,229.98046875,590.8203125,0.0
1578460524.665378,-852.5390625,-104.00390625,456.54296875,-780.2734375,0.0
1578460524.712253,-856.93359375,-101.5625,435.546875,436.5234375,-0.48828125
1578460524.712253,-859.86328125,-59.5703125,185.546875,-967.7734375,-0.9765625
1578460524.712253,-856.93359375,-54.6875,211.9140625,15.13671875,30.2734375
1578460524.712253,-858.3984375,-96.19140625,457.51953125,-853.02734375,-70.80078125
1578460524.712253,-856.93359375,-109.86328125,437.01171875,931.640625,358.88671875
1578460524.712253,-856.4453125,-79.58984375,319.82421875,-431.640625,903.3203125
1578460524.712253,-858.88671875,-75.68359375,312.5,-285.64453125,646.484375
1578460524.712253,-857.91015625,-112.79296875,617.1875,-947.75390625,771.97265625
1578460524.712253,-858.88671875,-130.859375,742.67578125,-877.9296875,870.60546875
1578460524.712253,-857.91015625,-98.14453125,241.2109375,-185.05859375,572.75390625
1578460524.712253,-856.4453125,-81.0546875,129.8828125,-482.421875,520.99609375
1578460524.712253,-858.88671875,-114.2578125,357.421875,937.5,779.78515625
1578460524.759128,-858.88671875,-145.99609375,371.09375,-803.7109375,951.171875
1578460524.759128,-855.46875,-118.65234375,195.80078125,77.1484375,671.38671875
1578460524.759128,-854.4921875,-90.33203125,151.85546875,-718.75,541.015625
1578460524.759128,-858.88671875,-109.375,328.61328125,687.5,819.3359375
1578460524.759128,-860.3515625,-137.20703125,398.4375,-834.9609375,875.9765625
1578460524.759128,-858.88671875,-134.27734375,364.2578125,683.59375,921.875
1578460524.759128,-858.3984375,-101.5625,309.5703125,-357.421875,950.1953125
1578460524.759128,-855.95703125,-103.515625,565.4296875,420.41015625,992.1875
1578460524.759128,-860.3515625,-139.16015625,590.33203125,-904.78515625,801.7578125
1578460524.759128,-860.83984375,-139.16015625,364.2578125,-957.03125,136.71875
1578460524.759128,-858.88671875,-102.05078125,321.77734375,-127.9296875,322.265625
1578460524.759128,-858.88671875,-92.7734375,232.91015625,-264.6484375,750.48828125
1578460524.806003,-859.86328125,-125.0,257.8125,999.51171875,321.2890625
1578460524.806003,-857.91015625,-144.04296875,304.6875,-847.16796875,87.890625
1578460524.806003,-854.4921875,-126.953125,282.2265625,266.11328125,498.046875
1578460524.806003,-856.4453125,-111.328125,205.078125,-310.546875,806.15234375
1578460524.806003,-856.93359375,-145.01953125,248.046875,928.7109375,510.25390625
1578460524.806003,-854.4921875,-179.19921875,401.3671875,-992.67578125,814.94140625
1578460524.806003,-856.4453125,-168.9453125,552.734375,-974.609375,-973.14453125
1578460524.806003,-863.28125,-145.99609375,505.37109375,306.640625,946.2890625
1578460524.806003,-862.3046875,-152.83203125,210.9375,284.1796875,533.203125
1578460524.806003,-855.46875,-192.87109375,278.3203125,-805.17578125,664.55078125
1578460524.806003,-856.4453125,-197.265625,316.40625,710.9375,-935.05859375
1578460524.806003,-857.91015625,-163.57421875,175.78125,-667.96875,465.33203125
1578460524.852878,-859.375,-164.55078125,188.96484375,100.5859375,-86.42578125
1578460524.852878,-859.375,-204.1015625,317.3828125,-892.578125,0.0
1578460524.852878,-857.421875,-221.6796875,361.81640625,-944.3359375,571.77734375
1578460524.852878,-856.4453125,-194.3359375,161.62109375,-195.3125,440.4296875
1578460524.852878,-852.5390625,-174.31640625,96.19140625,-313.96484375,140.13671875
1578460524.852878,-854.00390625,-205.56640625,355.95703125,-987.79296875,790.52734375
1578460524.852878,-860.83984375,-236.81640625,647.4609375,-829.58984375,-938.96484375
1578460524.852878,-863.28125,-204.1015625,380.37109375,42.48046875,678.22265625
1578460524.852878,-858.3984375,-167.48046875,54.6875,-435.05859375,-125.48828125
1578460524.852878,-856.93359375,-187.5,309.08203125,910.64453125,-87.40234375
1578460524.852878,-857.91015625,-215.33203125,506.8359375,-853.515625,452.1484375
1578460524.852878,-859.86328125,-200.68359375,309.5703125,550.78125,643.5546875
1578460524.899753,-864.74609375,-170.8984375,104.98046875,-514.16015625,608.3984375
1578460524.899753,-859.86328125,-187.98828125,267.578125,455.56640625,434.5703125
1578460524.899753,-856.93359375,-221.19140625,509.765625,-836.42578125,600.5859375
1578460524.899753,-860.3515625,-206.54296875,390.13671875,848.14453125,207.03125
1578460524.899753,-862.3046875,-164.55078125,143.5546875,-341.30859375,196.2890625
1578460524.899753,-862.3046875,-170.8984375,357.421875,122.55859375,854.00390625
1578460524.899753,-864.2578125,-212.890625,631.34765625,-910.64453125,958.0078125
1578460524.899753,-864.2578125,-213.8671875,410.64453125,-900.390625,247.55859375
1578460524.899753,-860.83984375,-174.31640625,147.4609375,-30.76171875,-202.1484375
1578460524.899753,-860.3515625,-159.66796875,350.5859375,-273.4375,390.625
1578460524.899753,-862.3046875,-186.03515625,508.30078125,-997.55859375,762.20703125
1578460524.899753,-861.328125,-205.56640625,319.82421875,-847.16796875,422.8515625
1578460524.946628,-855.95703125,-183.59375,246.58203125,248.53515625,-10.7421875
1578460524.946628,-854.4921875,-144.53125,210.44921875,-316.40625,357.421875
1578460524.946628,-860.3515625,-154.296875,256.8359375,901.3671875,996.58203125
1578460524.946628,-860.3515625,-186.5234375,312.98828125,-951.66015625,643.5546875
1578460524.946628,-855.95703125,-178.22265625,317.87109375,889.6484375,160.64453125
1578460524.946628,-860.3515625,-146.97265625,344.23828125,465.33203125,710.44921875
1578460524.946628,-861.328125,-147.4609375,373.046875,699.70703125,-936.03515625
1578460524.946628,-854.98046875,-171.875,447.75390625,980.46875,388.18359375
1578460524.946628,-855.95703125,-169.921875,459.9609375,-884.27734375,-12.20703125
1578460524.946628,-857.91015625,-137.6953125,472.16796875,312.5,707.51953125
1578460524.946628,-856.93359375,-119.140625,297.36328125,-64.94140625,511.71875
1578460524.946628,-859.375,-144.04296875,233.3984375,967.7734375,-133.7890625
1578460524.993503,-860.83984375,-162.59765625,399.90234375,-814.94140625,291.50390625
1578460524.993503,-859.86328125,-134.765625,293.9453125,-4.39453125,593.26171875
1578460524.993503,-860.83984375,-113.76953125,139.6484375,-301.26953125,183.59375
1578460524.993503,-858.88671875,-143.06640625,260.25390625,997.55859375,-70.80078125
1578460524.993503,-853.02734375,-182.12890625,438.96484375,-900.87890625,424.8046875
1578460524.993503,-853.515625,-174.31640625,428.7109375,600.09765625,992.67578125
1578460524.993503,-857.91015625,-144.04296875,298.33984375,145.5078125,958.984375
1578460524.993503,-859.86328125,-152.34375,258.30078125,839.35546875,923.828125
1578460524.993503,-856.4453125,-190.4296875,590.33203125,-865.72265625,994.140625
1578460524.993503,-861.328125,-179.19921875,667.96875,630.37109375,870.60546875
1578460524.993503,-863.28125,-126.953125,149.4140625,-813.4765625,145.99609375
1578460524.993503,-859.375,-129.39453125,141.11328125,-5.859375,-372.55859375
1578460525.040378,-859.86328125,-184.08203125,396.484375,-868.1640625,313.96484375
1578460525.040378,-863.28125,-194.82421875,321.2890625,-994.140625,495.1171875
1578460525.040378,-859.86328125,-150.87890625,107.91015625,-338.37890625,-16.6015625
1578460525.040378,-859.375,-144.04296875,151.3671875,-305.6640625,0.0
1578460525.040378,-862.79296875,-180.17578125,388.671875,-971.19140625,499.51171875
1578460525.040378,-859.86328125,-195.80078125,458.0078125,-865.72265625,-960.9375
1578460525.040378,-860.3515625,-168.45703125,330.56640625,255.859375,919.43359375
1578460525.040378,-860.83984375,-143.5546875,273.4375,-167.96875,540.0390625
1578460525.040378,-862.3046875,-178.22265625,606.4453125,933.10546875,825.68359375
1578460525.040378,-863.76953125,-201.171875,558.10546875,-844.23828125,747.0703125
1578460525.040378,-861.328125,-169.43359375,200.1953125,393.5546875,-237.79296875
1578460525.040378,-859.375,-140.625,238.28125,-120.1171875,-117.1875
1578460525.087253,-859.86328125,-145.99609375,307.12890625,886.71875,482.421875
1578460525.087253,-861.81640625,-168.9453125,296.38671875,-942.87109375,128.90625
1578460525.087253,-862.3046875,-163.57421875,250.9765625,880.37109375,-225.09765625
1578460525.087253,-862.79296875,-135.7421875,225.09765625,259.765625,187.5
1578460525.087253,-863.76953125,-132.32421875,251.46484375,530.2734375,699.70703125
1578460525.087253,-863.28125,-163.57421875,409.1796875,-937.98828125,799.8046875
1578460525.087253,-863.28125,-178.22265625,429.19921875,935.546875,919.921875
1578460525.087253,-864.74609375,-160.15625,455.078125,950.68359375,968.26171875
1578460525.087253,-867.1875,-151.85546875,511.23046875,972.65625,979.98046875
1578460525.087253,-865.72265625,-167.96875,281.73828125,895.99609375,233.3984375
1578460525.087253,-859.375,-188.4765625,265.625,-838.37890625,-95.21484375
1578460525.087253,-858.88671875,-169.921875,245.60546875,254.8828125,752.44140625
1578460525.134128,-867.1875,-148.4375,101.5625,-293.9453125,477.5390625
1578460525.134128,-863.76953125,-180.17578125,213.8671875,903.80859375,-260.25390625
1578460525.134128,-859.86328125,-211.9140625,426.7578125,-856.93359375,-103.02734375
1578460525.134128,-867.67578125,-191.40625,319.82421875,597.65625,510.7421875
1578460525.134128,-866.69921875,-156.25,101.5625,-255.859375,527.34375
1578460525.134128,-859.86328125,-168.45703125,240.234375,652.34375,707.03125
1578460525.134128,-860.83984375,-200.68359375,466.796875,-917.48046875,988.28125
1578460525.134128,-863.76953125,-202.63671875,620.1171875,-994.140625,999.0234375
1578460525.134128,-868.1640625,-161.62109375,347.65625,-158.69140625,690.91796875
1578460525.134128,-864.74609375,-144.53125,41.9921875,-53.22265625,-239.2578125
1578460525.134128,-862.3046875,-189.453125,322.75390625,-935.05859375,-193.84765625
1578460525.134128,-865.234375,-193.359375,399.90234375,-872.55859375,433.59375
1578460525.181003,-864.2578125,-151.3671875,126.46484375,46.38671875,70.80078125
1578460525.181003,-861.81640625,-133.7890625,62.98828125,-257.8125,230.46875
1578460525.181003,-862.3046875,-168.9453125,310.546875,-976.07421875,-970.703125
1578460525.181003,-864.74609375,-198.73046875,398.4375,-943.359375,684.08203125
1578460525.181003,-862.79296875,-175.78125,267.08984375,598.6328125,114.2578125
1578460525.181003,-863.76953125,-143.5546875,200.1953125,373.53515625,689.453125
1578460525.181003,-864.2578125,-166.015625,483.3984375,898.4375,-979.98046875
1578460525.181003,-864.2578125,-199.70703125,685.546875,-886.71875,959.9609375
1578460525.181003,-864.74609375,-172.8515625,271.484375,658.69140625,334.9609375
1578460525.181003,-860.83984375,-140.13671875,63.96484375,-440.4296875,-456.54296875
1578460525.181003,-859.375,-154.296875,194.82421875,448.2421875,229.98046875
1578460525.181003,-858.88671875,-186.03515625,295.8984375,-872.55859375,543.9453125
1578460525.227878,-862.79296875,-180.6640625,203.61328125,970.21484375,-132.8125
1578460525.227878,-862.3046875,-151.3671875,123.046875,-225.5859375,-190.91796875
1578460525.227878,-862.3046875,-145.99609375,204.1015625,-5.859375,426.26953125
1578460525.227878,-863.76953125,-177.24609375,270.01953125,-878.90625,514.6484375
1578460525.227878,-859.375,-187.98828125,270.99609375,-998.53515625,564.94140625
1578460525.227878,-858.88671875,-162.59765625,260.25390625,571.2890625,974.12109375
1578460525.227878,-863.28125,-151.3671875,445.3125,547.8515625,-986.328125
1578460525.227878,-866.2109375,-168.45703125,510.7421875,983.3984375,675.29296875
1578460525.227878,-867.1875,-185.05859375,294.43359375,-937.01171875,-58.59375
1578460525.227878,-862.79296875,-167.48046875,245.1171875,587.40234375,-56.640625
1578460525.227878,-864.74609375,-144.04296875,216.30859375,-390.625,372.0703125
1578460525.227878,-866.2109375,-159.66796875,170.8984375,457.03125,117.67578125
1578460525.274753,-864.2578125,-179.6875,254.8828125,-826.171875,-250.9765625
1578460525.274753,-860.83984375,-171.875,297.36328125,797.36328125,274.90234375
1578460525.274753,-863.28125,-145.5078125,187.5,-627.9296875,691.89453125
1578460525.274753,-864.74609375,-136.23046875,128.41796875,-74.70703125,92.28515625
1578460525.274753,-859.86328125,-173.33984375,263.18359375,-904.78515625,105.46875
1578460525.274753,-859.375,-189.94140625,472.16796875,-903.80859375,844.23828125
1578460525.274753,-863.76953125,-157.71484375,433.59375,-64.94140625,956.54296875
1578460525.274753,-864.2578125,-137.6953125,166.9921875,-293.9453125,832.03125
1578460525.274753,-858.3984375,-161.1328125,211.42578125,997.0703125,123.53515625
1578460525.274753,-860.3515625,-188.4765625,520.99609375,-820.80078125,250.48828125
1578460525.274753,-862.79296875,-171.38671875,465.33203125,29.78515625,561.5234375
1578460525.274753,-863.76953125,-145.5078125,116.69921875,-587.890625,-47.8515625
1578460525.321628,-862.79296875,-162.109375,207.51953125,823.73046875,-147.4609375
1578460525.321628,-865.234375,-193.359375,379.39453125,-783.69140625,415.0390625
1578460525.321628,-870.60546875,-171.875,238.76953125,157.2265625,520.5078125
1578460525.321628,-866.2109375,-132.32421875,49.8046875,-964.84375,-59.5703125
1578460525.321628,-860.83984375,-142.578125,187.5,353.515625,175.29296875
1578460525.321628,-862.79296875,-182.6171875,461.42578125,-844.7265625,809.5703125
1578460525.321628,-862.3046875,-176.7578125,443.359375,858.3984375,-996.09375
1578460525.321628,-860.3515625,-134.765625,164.0625,-570.3125,324.70703125
1578460525.321628,-863.76953125,-145.5078125,174.8046875,-218.75,40.52734375
1578460525.321628,-865.234375,-190.4296875,641.6015625,-881.8359375,743.1640625
1578460525.321628,-866.2109375,-183.59375,499.0234375,-969.7265625,924.8046875
1578460525.321628,-863.28125,-145.01953125,65.4296875,-351.07421875,328.61328125
1578460525.368503,-862.79296875,-134.27734375,188.96484375,-310.546875,141.11328125
1578460525.368503,-865.234375,-165.0390625,363.28125,-963.37890625,556.640625
1578460525.368503,-865.72265625,-181.640625,265.13671875,-848.6328125,309.5703125
1578460525.368503,-862.79296875,-150.390625,111.328125,-28.80859375,-107.91015625
1578460525.368503,-862.3046875,-129.8828125,161.62109375,-357.91015625,260.25390625
1578460525.368503,-864.2578125,-160.15625,363.76953125,963.37890625,923.33984375
1578460525.368503,-865.234375,-185.05859375,440.91796875,-808.10546875,-958.49609375
1578460525.368503,-863.76953125,-166.015625,254.39453125,128.90625,455.078125
1578460525.368503,-861.328125,-139.6484375,286.62109375,-339.35546875,387.6953125
1578460525.368503,-864.2578125,-149.90234375,517.08984375,963.8671875,990.234375
1578460525.368503,-868.1640625,-181.15234375,310.05859375,-992.67578125,332.03125
1578460525.368503,-862.79296875,-177.24609375,200.68359375,982.421875,-252.44140625
1578460525.415378,-861.81640625,-143.06640625,162.59765625,-314.453125,494.62890625
1578460525.415378,-868.1640625,-140.13671875,118.1640625,-206.0546875,645.5078125
1578460525.415378,-866.69921875,-173.33984375,213.8671875,-953.125,-65.91796875
1578460525.415378,-861.81640625,-188.96484375,331.0546875,-857.421875,-91.30859375
1578460525.415378,-861.328125,-166.50390625,261.71875,8.7890625,513.671875
1578460525.415378,-863.76953125,-152.34375,205.56640625,-266.11328125,987.79296875
1578460525.415378,-865.72265625,-171.875,345.21484375,986.81640625,985.3515625
1578460525.415378,-864.74609375,-187.98828125,421.38671875,-881.8359375,656.73828125
1578460525.415378,-865.72265625,-175.29296875,520.01953125,601.5625,709.47265625
1578460525.415378,-868.1640625,-141.6015625,271.97265625,-332.03125,808.59375
1578460525.415378,-866.2109375,-145.5078125,67.87109375,593.75,-58.10546875
1578460525.415378,-864.2578125,-174.8046875,308.59375,-759.27734375,-61.03515625
1578460525.462253,-863.28125,-164.55078125,291.015625,419.43359375,478.515625
1578460525.462253,-867.1875,-120.60546875,42.96875,-972.65625,73.73046875
1578460525.462253,-867.67578125,-120.60546875,67.87109375,33.69140625,-133.30078125
1578460525.462253,-865.234375,-158.203125,330.078125,-842.28515625,526.3671875
1578460525.462253,-865.72265625,-156.25,325.1953125,892.578125,831.0546875
1578460525.462253,-865.72265625,-121.09375,189.94140625,-467.7734375,813.96484375
1578460525.462253,-866.2109375,-115.72265625,200.1953125,-228.515625,965.33203125
1578460525.462253,-865.234375,-153.3203125,527.34375,-938.96484375,956.0546875
1578460525.462253,-868.1640625,-163.57421875,652.83203125,-880.859375,975.09765625
1578460525.462253,-867.67578125,-113.76953125,150.87890625,-154.78515625,264.6484375
1578460525.462253,-866.2109375,-93.75,38.57421875,-443.359375,-475.5859375
1578460525.462253,-866.69921875,-128.90625,266.11328125,952.1484375,207.51953125
1578460525.509128,-868.1640625,-143.06640625,277.34375,-812.98828125,596.19140625
1578460525.509128,-866.69921875,-113.28125,97.65625,72.75390625,-77.1484375
1578460525.509128,-863.76953125,-83.984375,49.31640625,-780.76171875,-207.51953125
1578460525.509128,-865.234375,-100.5859375,220.21484375,611.328125,412.109375
1578460525.509128,-867.1875,-137.6953125,285.15625,-781.73828125,546.875
1578460525.509128,-866.2109375,-131.8359375,252.44140625,496.58203125,642.578125
1578460525.509128,-867.1875,-94.23828125,184.5703125,-761.71875,927.734375
1578460525.509128,-868.1640625,-96.6796875,445.80078125,277.83203125,-996.58203125
1578460525.509128,-870.1171875,-126.46484375,499.0234375,-854.00390625,709.47265625
1578460525.509128,-867.1875,-128.41796875,266.6015625,955.078125,-193.359375
1578460525.509128,-865.72265625,-102.05078125,206.0546875,-414.55078125,-100.5859375
1578460525.509128,-868.1640625,-89.84375,126.953125,-347.65625,468.75
1578460525.556003,-870.1171875,-111.328125,163.57421875,-982.91015625,96.19140625
1578460525.556003,-866.2109375,-130.859375,204.1015625,-842.7734375,-249.51171875
1578460525.556003,-864.74609375,-111.81640625,188.96484375,95.21484375,200.68359375
1578460525.556003,-868.65234375,-86.9140625,115.72265625,-456.54296875,609.86328125
1578460525.556003,-870.60546875,-107.91015625,151.3671875,939.453125,296.875
1578460525.556003,-866.69921875,-149.4140625,305.17578125,-986.81640625,719.23828125
1578460525.556003,-864.74609375,-146.484375,455.078125,991.2109375,-958.984375
1578460525.556003,-866.2109375,-111.81640625,425.29296875,425.29296875,946.77734375
1578460525.556003,-870.60546875,-112.79296875,150.390625,435.05859375,493.65234375
1578460525.556003,-866.69921875,-153.3203125,195.80078125,-824.21875,600.09765625
1578460525.556003,-861.81640625,-152.83203125,242.1875,667.96875,-969.7265625
1578460525.556003,-867.1875,-125.9765625,131.34765625,-798.33984375,402.34375
1578460525.602878,-869.140625,-133.30078125,111.81640625,-21.484375,-208.49609375
1578460525.602878,-864.2578125,-160.15625,229.00390625,-858.88671875,-149.90234375
1578460525.602878,-865.234375,-168.45703125,293.9453125,988.76953125,478.515625
1578460525.602878,-870.1171875,-139.6484375,105.95703125,-406.25,388.671875
1578460525.602878,-868.1640625,-128.90625,24.90234375,-389.16015625,12.20703125
1578460525.602878,-866.2109375,-164.0625,253.41796875,-990.234375,718.75
1578460525.602878,-869.62890625,-188.4765625,577.1484375,-839.84375,-934.5703125
1578460525.602878,-871.58203125,-156.25,325.68359375,-26.3671875,684.08203125
1578460525.602878,-868.1640625,-120.1171875,-34.1796875,-661.62109375,-150.87890625
1578460525.602878,-862.79296875,-143.06640625,211.9140625,776.85546875,-169.921875
1578460525.602878,-862.3046875,-169.921875,378.90625,-785.15625,380.859375
1578460525.602878,-868.1640625,-139.6484375,153.3203125,243.1640625,677.734375
1578460525.649753,-867.67578125,-104.4921875,-9.27734375,-985.3515625,532.71484375
1578460525.649753,-868.65234375,-134.27734375,168.9453125,239.2578125,270.01953125
1578460525.649753,-872.0703125,-175.78125,409.66796875,-798.828125,559.08203125
1578460525.649753,-871.09375,-162.109375,282.71484375,743.1640625,204.1015625
1578460525.649753,-868.1640625,-128.41796875,33.69140625,-685.546875,68.359375
1578460525.649753,-867.67578125,-129.8828125,257.8125,-91.30859375,706.0546875
1578460525.649753,-870.60546875,-168.45703125,532.2265625,-887.6953125,-964.35546875
1578460525.649753,-872.55859375,-175.78125,311.5234375,-942.87109375,339.35546875
1578460525.649753,-871.09375,-134.27734375,42.96875,-246.58203125,-265.625
1578460525.649753,-867.67578125,-126.953125,248.046875,-332.51953125,397.94921875
1578460525.649753,-870.1171875,-161.62109375,404.78515625,-986.81640625,604.98046875
1578460525.649753,-873.046875,-175.29296875,208.984375,-844.23828125,-33.203125
1578460525.696628,-870.60546875,-156.73828125,131.8359375,53.22265625,-157.2265625
1578460525.696628,-862.79296875,-139.6484375,87.40234375,-810.05859375,349.609375
1578460525.696628,-865.234375,-153.3203125,139.6484375,623.046875,988.28125
1578460525.696628,-869.62890625,-178.7109375,203.61328125,-835.9375,612.3046875
1578460525.696628,-866.2109375,-172.8515625,207.51953125,649.4140625,137.20703125
1578460525.696628,-868.1640625,-147.94921875,237.3046875,-464.84375,717.28515625
1578460525.696628,-870.1171875,-157.71484375,283.69140625,243.65234375,-935.546875
1578460525.696628,-870.60546875,-192.3828125,367.1875,-941.40625,407.2265625
1578460525.696628,-867.1875,-191.89453125,374.51171875,-903.3203125,-31.73828125
1578460525.696628,-870.1171875,-166.015625,378.41796875,100.09765625,676.7578125
1578460525.696628,-875.0,-150.390625,246.58203125,-299.8046875,515.625
1578460525.696628,-870.60546875,-183.59375,224.12109375,-992.1875,-130.859375
1578460525.743503,-869.62890625,-214.35546875,339.35546875,-888.671875,242.1875
1578460525.743503,-869.62890625,-187.98828125,212.40234375,-324.21875,537.59765625
1578460525.743503,-867.67578125,-173.828125,54.19921875,-759.765625,162.59765625
1578460525.743503,-867.1875,-195.3125,179.19921875,762.6953125,-88.37890625
1578460525.743503,-863.76953125,-212.890625,368.1640625,-777.83203125,423.33984375
1578460525.743503,-865.72265625,-204.1015625,342.7734375,82.51953125,992.1875
1578460525.743503,-871.09375,-179.6875,229.4921875,-939.94140625,951.171875
1578460525.743503,-871.09375,-192.87109375,225.09765625,430.17578125,913.0859375
1578460525.743503,-869.140625,-237.3046875,523.92578125,-755.859375,-974.609375
1578460525.743503,-870.60546875,-233.88671875,598.14453125,291.9921875,800.29296875
1578460525.743503,-872.55859375,-194.82421875,99.609375,-1000.0,239.2578125
1578460525.743503,-870.60546875,-207.51953125,82.03125,-251.46484375,65.91796875
1578460525.790378,-870.1171875,-250.48828125,344.23828125,-801.7578125,412.109375
1578460525.790378,-871.09375,-259.27734375,278.80859375,520.5078125,435.05859375
1578460525.790378,-871.09375,-235.83984375,62.5,-1000.0,-93.75
1578460525.790378,-871.58203125,-232.421875,101.5625,-560.546875,-121.09375
1578460525.790378,-870.1171875,-261.23046875,333.984375,881.34765625,455.56640625
1578460525.790378,-867.67578125,-280.2734375,400.87890625,193.84765625,-1000.0
1578460525.790378,-869.62890625,-269.04296875,266.11328125,-935.546875,977.05078125
1578460525.790378,-868.65234375,-256.8359375,188.96484375,-1000.0,681.15234375
1578460525.790378,-870.1171875,-274.90234375,518.5546875,314.94140625,800.78125
1578460525.790378,-875.0,-294.43359375,465.8203125,377.9296875,721.19140625
1578460525.790378,-871.09375,-275.87890625,80.56640625,-1000.0,-290.0390625
1578460525.790378,-867.67578125,-259.27734375,111.328125,-1000.0,-216.30859375
1578460525.837253,-871.09375,-275.390625,155.76171875,-841.796875,427.24609375
1578460525.837253,-872.55859375,-313.96484375,102.05078125,-327.63671875,59.08203125
1578460525.837253,-870.1171875,-321.77734375,29.78515625,-775.87890625,-338.37890625
1578460525.837253,-872.0703125,-315.4296875,-5.859375,-1000.0,34.66796875
1578460525.837253,-875.9765625,-328.61328125,-1.953125,-1000.0,657.2265625
1578460525.837253,-871.09375,-357.91015625,111.328125,200.1953125,911.1328125
1578460525.837253,-870.1171875,-379.8828125,109.375,162.59765625,938.96484375
1578460525.837253,-871.09375,-378.41796875,132.8125,-1000.0,893.06640625
1578460525.837253,-873.53515625,-373.53515625,198.73046875,-1000.0,961.9140625
1578460525.837253,-877.44140625,-389.6484375,-62.01171875,-594.7265625,168.45703125
1578460525.837253,-872.0703125,-418.45703125,-122.55859375,-378.90625,-424.31640625
1578460525.837253,-870.60546875,-430.17578125,-149.90234375,-963.37890625,502.9296875
1578460525.884128,-872.55859375,-440.4296875,-304.19921875,-1000.0,301.7578125
1578460525.884128,-869.140625,-460.9375,-239.2578125,-265.13671875,-619.140625
1578460525.884128,-869.140625,-479.4921875,-78.125,-783.69140625,-548.828125
1578460525.884128,-874.51171875,-477.05078125,-184.08203125,99.12109375,246.58203125
1578460525.884128,-873.53515625,-465.33203125,-383.30078125,-999.51171875,238.76953125
1578460525.884128,-868.1640625,-465.8203125,-284.1796875,495.60546875,292.48046875
1578460525.884128,-868.65234375,-472.16796875,-126.953125,-895.5078125,826.66015625
1578460525.884128,-873.046875,-472.16796875,39.0625,897.4609375,915.52734375
1578460525.884128,-876.953125,-445.80078125,-173.33984375,977.05078125,537.109375
1578460525.884128,-875.9765625,-412.109375,-488.76953125,968.26171875,-732.421875
1578460525.884128,-869.62890625,-405.76171875,-255.859375,968.26171875,-851.5625
1578460525.884128,-871.09375,-390.13671875,-166.9921875,968.26171875,-94.23828125
1578460525.931003,-873.046875,-355.95703125,-376.46484375,968.26171875,-407.71484375
1578460525.931003,-872.0703125,-334.47265625,-409.1796875,968.26171875,-383.30078125
1578460525.931003,-872.55859375,-316.40625,-180.6640625,968.26171875,496.58203125
1578460525.931003,-872.55859375,-300.29296875,-91.796875,968.26171875,297.8515625
1578460525.931003,-872.0703125,-273.4375,-157.71484375,968.26171875,-402.34375
1578460525.931003,-871.58203125,-231.93359375,-164.55078125,968.26171875,312.98828125
1578460525.931003,-873.046875,-195.3125,112.3046875,968.26171875,-990.72265625
1578460525.931003,-875.0,-162.109375,323.73046875,968.26171875,957.03125
1578460525.931003,-875.0,-114.74609375,-27.34375,968.26171875,183.59375
1578460525.931003,-873.53515625,-68.84765625,-167.96875,968.26171875,-777.34375
1578460525.931003,-870.1171875,-30.2734375,-14.16015625,968.26171875,-10.7421875
1578460525.931003,-865.72265625,0.9765625,58.59375,968.26171875,404.78515625
1578460525.977878,-871.58203125,18.06640625,-7.8125,968.26171875,-319.82421875
1578460525.977878,-873.53515625,37.109375,3.90625,968.26171875,-320.80078125
1578460525.977878,-874.51171875,63.96484375,112.3046875,968.26171875,347.16796875
1578460525.977878,-874.0234375,85.9375,124.0234375,968.26171875,536.62109375
1578460525.977878,-866.69921875,93.75,124.51171875,968.26171875,606.4453125
1578460525.977878,-864.74609375,95.703125,162.59765625,968.26171875,981.4453125
1578460525.977878,-872.55859375,104.98046875,500.48828125,968.26171875,-997.55859375
1578460525.977878,-876.46484375,125.0,598.6328125,968.26171875,727.05078125
1578460525.977878,-876.46484375,132.32421875,193.359375,968.26171875,79.58984375
1578460525.977878,-873.53515625,121.58203125,181.15234375,968.26171875,145.99609375
1578460525.977878,-872.0703125,122.55859375,243.65234375,968.26171875,570.80078125
1578460525.977878,-872.0703125,128.41796875,155.76171875,968.26171875,306.15234375
1578460526.024753,-873.53515625,116.69921875,168.9453125,968.26171875,17.08984375
1578460526.024753,-872.55859375,101.07421875,267.578125,968.26171875,542.48046875
1578460526.024753,-869.62890625,99.12109375,263.671875,980.95703125,867.67578125
1578460526.024753,-871.09375,104.98046875,195.80078125,916.9921875,393.06640625
1578460526.024753,-874.0234375,94.7265625,270.5078125,-985.83984375,492.1875
1578460526.024753,-873.53515625,77.1484375,518.06640625,846.6796875,934.5703125
1578460526.024753,-872.55859375,77.1484375,598.6328125,-538.57421875,997.0703125
1578460526.024753,-873.046875,88.37890625,380.37109375,-1000.0,903.80859375
1578460526.024753,-870.1171875,92.28515625,346.19140625,-934.5703125,336.9140625
1578460526.024753,-871.58203125,75.1953125,660.64453125,-1000.0,501.46484375
1578460526.024753,-876.953125,67.87109375,709.9609375,-1000.0,795.8984375
1578460526.024753,-876.46484375,74.70703125,398.92578125,-1000.0,432.6171875
1578460526.071628,-871.58203125,78.61328125,464.84375,-1000.0,336.9140625
1578460526.071628,-871.58203125,74.70703125,611.328125,-1000.0,689.94140625
1578460526.071628,-872.0703125,68.359375,557.12890625,-1000.0,795.41015625
1578460526.071628,-874.0234375,72.75390625,465.33203125,-1000.0,461.9140625
1578460526.071628,-871.58203125,68.359375,552.24609375,-1000.0,664.0625
1578460526.071628,-868.1640625,56.15234375,755.37109375,-1000.0,956.0546875
1578460526.071628,-871.58203125,46.38671875,766.6015625,-1000.0,-999.51171875
1578460526.071628,-873.53515625,41.9921875,564.453125,-1000.0,521.97265625
1578460526.071628,-870.1171875,28.3203125,566.40625,-1000.0,246.58203125
1578460526.071628,-872.0703125,0.0,850.09765625,-1000.0,885.7421875
1578460526.071628,-880.859375,-11.71875,701.171875,-1000.0,815.4296875
1578460526.071628,-877.44140625,-27.83203125,455.56640625,-1000.0,62.01171875
1578460526.118503,-870.60546875,-53.22265625,582.51953125,-1000.0,177.734375
1578460526.118503,-871.58203125,-66.40625,612.79296875,-1000.0,651.3671875
1578460526.118503,-874.51171875,-79.58984375,477.5390625,-1000.0,346.19140625
1578460526.118503,-872.0703125,-106.93359375,397.94921875,-1000.0,-41.9921875
1578460526.118503,-871.09375,-135.25390625,485.83984375,-1000.0,270.01953125
1578460526.118503,-873.53515625,-166.50390625,575.68359375,-1000.0,904.296875
1578460526.118503,-875.48828125,-186.5234375,533.69140625,-1000.0,-973.14453125
1578460526.118503,-876.46484375,-189.453125,389.16015625,-1000.0,283.69140625
1578460526.118503,-872.55859375,-209.47265625,495.1171875,-1000.0,209.9609375
1578460526.118503,-876.46484375,-227.5390625,656.73828125,-1000.0,836.42578125
1578460526.118503,-881.8359375,-219.7265625,355.46875,-1000.0,1.46484375
1578460526.118503,-874.0234375,-229.4921875,319.3359375,-1000.0,-485.83984375
1578460526.165378,-873.046875,-236.328125,328.61328125,-1000.0,392.578125
1578460526.165378,-876.46484375,-229.4921875,219.23828125,-1000.0,384.765625
1578460526.165378,-872.55859375,-221.19140625,226.5625,-1000.0,-412.109375
1578460526.165378,-867.67578125,-217.28515625,354.00390625,-1000.0,-496.09375
1578460526.165378,-871.58203125,-206.0546875,393.06640625,-1000.0,283.203125
1578460526.165378,-872.0703125,-181.640625,393.06640625,-1000.0,923.828125
1578460526.165378,-873.046875,-164.55078125,465.8203125,-1000.0,899.90234375
1578460526.165378,-873.53515625,-147.4609375,503.90625,-1000.0,371.58203125
1578460526.165378,-875.9765625,-142.578125,719.23828125,-1000.0,479.00390625
1578460526.165378,-879.8828125,-121.09375,594.23828125,-1000.0,677.24609375
1578460526.165378,-874.0234375,-91.30859375,341.796875,-1000.0,-422.8515625
1578460526.165378,-871.58203125,-75.68359375,526.85546875,-1000.0,-97.16796875
1578460526.212253,-874.0234375,-65.91796875,596.6796875,-1000.0,260.25390625
1578460526.212253,-874.0234375,-55.6640625,461.42578125,-1000.0,-519.04296875
1578460526.212253,-874.0234375,-39.55078125,462.890625,-1000.0,-914.0625
1578460526.212253,-873.53515625,-43.45703125,628.90625,-1000.0,-110.3515625
1578460526.212253,-874.51171875,-48.828125,655.2734375,-1000.0,323.73046875
1578460526.212253,-874.51171875,-51.7578125,599.609375,-1000.0,126.46484375
1578460526.212253,-872.0703125,-53.7109375,640.13671875,-1000.0,177.734375
1578460526.212253,-871.58203125,-41.9921875,771.484375,-1000.0,231.93359375
1578460526.212253,-873.046875,-35.64453125,694.82421875,-1000.0,740.234375
1578460526.212253,-873.53515625,-39.55078125,482.421875,-1000.0,-234.86328125
1578460526.212253,-874.0234375,-39.55078125,449.21875,-1000.0,-1000.0
1578460526.212253,-874.0234375,-43.45703125,748.046875,-1000.0,-546.38671875
1578460526.259128,-878.90625,-46.38671875,862.79296875,-1000.0,-456.0546875
1578460526.259128,-878.90625,-40.0390625,492.1875,-1000.0,-1000.0
1578460526.259128,-874.0234375,-35.15625,446.77734375,-1000.0,-1000.0
1578460526.259128,-875.9765625,-28.3203125,578.125,-1000.0,-536.62109375
1578460526.259128,-875.9765625,-21.97265625,558.59375,-1000.0,-560.05859375
1578460526.259128,-875.48828125,-17.578125,571.2890625,-1000.0,-639.16015625
1578460526.259128,-872.0703125,-18.06640625,585.9375,-1000.0,-162.59765625
1578460526.259128,-870.1171875,-20.5078125,783.203125,-1000.0,188.96484375
1578460526.259128,-875.48828125,-8.7890625,775.87890625,-1000.0,-455.56640625
1578460526.259128,-875.0,0.48828125,493.1640625,-1000.0,-1000.0
1578460526.259128,-873.046875,0.9765625,469.7265625,-1000.0,-1000.0
1578460526.259128,-873.046875,5.859375,468.26171875,-1000.0,122.55859375
1578460526.306003,-875.0,12.20703125,388.671875,-1000.0,308.59375
1578460526.306003,-876.46484375,9.27734375,368.1640625,-1000.0,-1000.0
1578460526.306003,-873.046875,-4.39453125,413.57421875,-1000.0,-860.3515625
1578460526.306003,-874.51171875,-7.8125,375.48828125,-1000.0,-494.62890625
1578460526.306003,-877.44140625,-6.34765625,313.4765625,-1000.0,-849.12109375
1578460526.306003,-871.58203125,-29.296875,388.18359375,-1000.0,-598.6328125
1578460526.306003,-870.1171875,-59.08203125,568.359375,-1000.0,66.89453125
1578460526.306003,-872.55859375,-66.40625,587.40234375,-1000.0,683.59375
1578460526.306003,-874.0234375,-61.5234375,235.3515625,-1000.0,148.4375
1578460526.306003,-873.046875,-82.03125,140.13671875,-1000.0,-805.17578125
1578460526.306003,-874.51171875,-114.74609375,187.01171875,-1000.0,-556.640625
1578460526.306003,-877.9296875,-137.6953125,149.90234375,-1000.0,-389.6484375
1578460526.352878,-875.0,-147.94921875,73.2421875,-1000.0,-1000.0
1578460526.352878,-875.48828125,-168.45703125,33.69140625,-1000.0,-1000.0
1578460526.352878,-875.9765625,-192.3828125,60.05859375,-942.87109375,-315.4296875
1578460526.352878,-875.48828125,-208.984375,-59.08203125,-1000.0,-173.33984375
1578460526.352878,-874.51171875,-218.26171875,-151.3671875,-787.109375,-801.7578125
1578460526.352878,-875.48828125,-234.86328125,-77.63671875,613.28125,113.28125
1578460526.352878,-876.953125,-259.27734375,159.1796875,-940.91796875,-987.3046875
1578460526.352878,-877.44140625,-262.20703125,2.9296875,905.76171875,565.4296875
1578460526.352878,-878.90625,-254.8828125,-357.421875,979.98046875,-631.34765625
1578460526.352878,-878.41796875,-267.08984375,-257.8125,968.26171875,-695.3125
1578460526.352878,-881.34765625,-285.15625,-203.125,968.26171875,14.16015625
1578460526.352878,-880.859375,-296.38671875,-418.9453125,968.26171875,416.9921875
1578460526.399753,-878.90625,-308.59375,-529.296875,968.26171875,201.171875
1578460526.399753,-879.8828125,-312.01171875,-409.1796875,968.26171875,10.25390625
1578460526.399753,-879.8828125,-320.3125,-286.1328125,968.26171875,449.70703125
1578460526.399753,-879.39453125,-335.44921875,-437.01171875,968.26171875,152.83203125
1578460526.399753,-877.44140625,-348.6328125,-560.05859375,968.26171875,149.90234375
1578460526.399753,-878.90625,-363.28125,-335.9375,968.26171875,766.11328125
1578460526.399753,-879.8828125,-378.90625,-204.1015625,968.26171875,-945.80078125
1578460526.399753,-878.41796875,-385.25390625,-439.94140625,968.26171875,730.95703125
1578460526.399753,-876.46484375,-389.16015625,-614.2578125,968.26171875,313.4765625
1578460526.399753,-877.9296875,-399.4140625,-377.9296875,968.26171875,699.21875
1578460526.399753,-880.859375,-400.390625,-312.01171875,968.26171875,802.24609375
1578460526.399753,-876.953125,-396.484375,-571.77734375,968.26171875,382.8125
1578460526.446628,-876.46484375,-406.25,-578.125,968.26171875,360.83984375
1578460526.446628,-878.90625,-404.78515625,-535.15625,968.26171875,719.23828125
1578460526.446628,-878.90625,-387.20703125,-562.01171875,968.26171875,-982.421875
1578460526.446628,-876.953125,-379.8828125,-604.98046875,968.26171875,720.703125
1578460526.446628,-877.9296875,-389.16015625,-561.5234375,968.26171875,615.72265625
1578460526.446628,-880.37109375,-393.06640625,-435.05859375,968.26171875,936.5234375
1578460526.446628,-881.8359375,-376.46484375,-426.7578125,968.26171875,-981.93359375
1578460526.446628,-881.8359375,-375.48828125,-483.88671875,968.26171875,671.875
1578460526.446628,-880.859375,-375.9765625,-475.5859375,968.26171875,493.1640625
1578460526.446628,-880.37109375,-374.51171875,-338.8671875,968.26171875,933.10546875
1578460526.446628,-882.32421875,-350.5859375,-501.46484375,968.26171875,786.1328125
1578460526.446628,-882.32421875,-380.37109375,-699.21875,968.26171875,488.76953125
1578460526.493503,-881.8359375,-519.53125,-497.0703125,968.26171875,734.375
1578460526.493503,-884.765625,-704.1015625,-372.0703125,968.26171875,874.51171875
1578460526.493503,-884.27734375,-921.38671875,-329.1015625,968.26171875,670.41015625
1578460526.493503,-877.44140625,-1000.0,-87.890625,968.26171875,639.16015625
1578460526.493503,-870.60546875,-994.140625,137.6953125,968.26171875,836.42578125
1578460526.493503,-875.0,-1000.0,174.8046875,968.26171875,978.02734375
1578460526.493503,-882.8125,-1000.0,27.83203125,968.26171875,965.8203125
1578460526.493503,-882.8125,-1000.0,-192.87109375,968.26171875,954.58984375
1578460526.493503,-884.27734375,-1000.0,-186.03515625,968.26171875,978.515625
1578460526.493503,-888.18359375,-1000.0,-357.91015625,968.26171875,931.15234375
1578460526.493503,-886.23046875,-1000.0,-926.7578125,968.26171875,628.41796875
1578460526.493503,-881.8359375,-1000.0,-1000.0,968.26171875,436.03515625
1578460526.540378,-882.8125,-1000.0,-981.4453125,968.26171875,763.671875
1578460526.540378,-882.32421875,-1000.0,-1000.0,968.26171875,704.1015625
1578460526.540378,-882.32421875,-1000.0,-1000.0,968.26171875,312.01171875
1578460526.540378,-882.8125,-1000.0,-1000.0,968.26171875,243.65234375
1578460526.540378,-880.37109375,-1000.0,-1000.0,968.26171875,633.30078125
1578460526.540378,-879.39453125,-1000.0,-998.046875,968.26171875,-984.375
1578460526.540378,-879.8828125,-1000.0,-1000.0,978.02734375,948.73046875
1578460526.540378,-877.9296875,-1000.0,-1000.0,926.26953125,905.76171875
1578460526.540378,-877.9296875,-1000.0,-896.484375,990.234375,985.83984375
1578460526.540378,-883.30078125,-1000.0,-922.8515625,913.57421875,860.3515625
1578460526.540378,-879.39453125,-1000.0,-1000.0,-366.2109375,400.87890625
1578460526.540378,-876.953125,-1000.0,-994.62890625,-1000.0,580.56640625
1578460526.587253,-879.39453125,-1000.0,-1000.0,-63.96484375,916.50390625
1578460526.587253,-882.8125,-993.1640625,-1000.0,-963.8671875,661.1328125
1578460526.587253,-882.32421875,-1000.0,-1000.0,-1000.0,415.52734375
1578460526.587253,-878.41796875,-970.703125,-1000.0,-170.8984375,621.09375
1578460526.587253,-877.44140625,-863.28125,-1000.0,-1000.0,912.59765625
1578460526.587253,-871.09375,-962.890625,-1000.0,-949.70703125,941.40625
1578460526.587253,-868.1640625,-1000.0,-1000.0,-994.62890625,943.359375
1578460526.587253,-871.09375,-992.67578125,-1000.0,-1000.0,854.00390625
1578460526.587253,-870.60546875,-1000.0,-1000.0,-1000.0,958.49609375
1578460526.587253,-869.140625,-1000.0,-1000.0,-1000.0,-169.921875
1578460526.587253,-866.2109375,-1000.0,-1000.0,-946.2890625,-887.6953125
1578460526.587253,-866.2109375,-1000.0,-1000.0,-1000.0,-187.01171875
1578460526.634128,-867.1875,-1000.0,-1000.0,-861.81640625,-323.2421875
1578460526.634128,-863.76953125,-1000.0,-1000.0,543.45703125,-901.85546875
1578460526.634128,-864.2578125,-1000.0,-1000.0,-924.31640625,-892.578125
1578460526.634128,-874.0234375,-1000.0,-1000.0,900.87890625,245.60546875
1578460526.634128,-875.0,-1000.0,-1000.0,980.46875,828.125
1578460526.634128,-870.60546875,-1000.0,-1000.0,968.26171875,824.21875
1578460526.634128,-871.58203125,-1000.0,-1000.0,968.26171875,899.4140625
1578460526.634128,-877.44140625,-1000.0,-1000.0,968.26171875,972.65625
1578460526.634128,-884.765625,-1000.0,-1000.0,968.26171875,669.43359375
1578460526.634128,-881.8359375,-1000.0,-1000.0,968.26171875,-425.29296875
1578460526.634128,-877.9296875,-1000.0,-1000.0,968.26171875,-690.91796875
1578460526.634128,-883.7890625,-1000.0,-1000.0,968.26171875,-176.26953125
1578460526.681003,-888.18359375,-1000.0,-1000.0,968.26171875,-645.01953125
1578460526.681003,-882.32421875,-1000.0,-1000.0,968.26171875,-596.19140625
1578460526.681003,-883.30078125,-1000.0,-1000.0,979.00390625,144.04296875
1578460526.681003,-879.8828125,-1000.0,-1000.0,895.99609375,-276.85546875
1578460526.681003,-891.6015625,-1000.0,-1000.0,-898.4375,-969.23828125
1578460526.681003,-908.69140625,-1000.0,-1000.0,406.73828125,-955.56640625
1578460526.681003,-900.390625,-1000.0,-1000.0,-979.4921875,-858.3984375
1578460526.681003,-901.85546875,-1000.0,-1000.0,-1000.0,-19.04296875
1578460526.681003,-895.99609375,-1000.0,-1000.0,-953.125,-401.3671875
1578460526.681003,-886.71875,-1000.0,-1000.0,-954.58984375,-1000.0
1578460526.681003,-881.8359375,-1000.0,-1000.0,-1000.0,-328.125
1578460526.681003,-872.55859375,-1000.0,-954.58984375,-169.921875,442.3828125
1578460526.727878,-872.55859375,-1000.0,-1000.0,-947.265625,-126.46484375
1578460526.727878,-873.046875,-1000.0,-679.6875,944.82421875,510.25390625
1578460526.727878,-874.51171875,-1000.0,576.66015625,944.82421875,-958.984375
1578460526.727878,-874.0234375,-1000.0,-973.14453125,985.83984375,941.40625
1578460526.727878,-866.69921875,-1000.0,924.8046875,894.04296875,963.37890625
1578460526.727878,-872.0703125,-1000.0,970.703125,-898.4375,969.7265625
1578460526.727878,-885.7421875,-1000.0,976.07421875,437.98828125,968.26171875
1578460526.727878,-892.578125,-1000.0,933.10546875,-968.26171875,967.7734375
1578460526.727878,-891.6015625,-1000.0,987.79296875,-1000.0,968.75
1578460526.727878,-902.34375,-1000.0,867.1875,-953.125,963.37890625
1578460526.727878,-910.15625,-1000.0,-361.328125,-1000.0,929.19921875
1578460526.727878,-898.4375,-1000.0,-1000.0,-1000.0,963.8671875
1578460526.774753,-892.578125,-1000.0,-952.63671875,-1000.0,327.1484375
1578460526.774753,-891.11328125,-1000.0,-999.0234375,-1000.0,-234.375
1578460526.774753,-877.9296875,-1000.0,-1000.0,-1000.0,-275.87890625
1578460526.774753,-868.1640625,-1000.0,-1000.0,-1000.0,-881.34765625
1578460526.774753,-863.28125,-1000.0,-1000.0,-1000.0,-1000.0
1578460526.774753,-864.74609375,-1000.0,-1000.0,-1000.0,-1000.0
1578460526.774753,-868.1640625,-1000.0,-1000.0,-1000.0,-259.765625
1578460526.774753,-868.65234375,-1000.0,-1000.0,-1000.0,-541.015625
1578460526.774753,-864.74609375,-1000.0,-1000.0,-1000.0,-1000.0
1578460526.774753,-863.76953125,-1000.0,-1000.0,-1000.0,-954.58984375
1578460526.774753,-863.76953125,-1000.0,-1000.0,-1000.0,-1000.0
1578460526.774753,-862.79296875,-1000.0,-1000.0,-1000.0,-1000.0
1578460526.821628,-861.81640625,-1000.0,-1000.0,-1000.0,-1000.0
1578460526.821628,-861.81640625,-1000.0,-1000.0,-1000.0,-1000.0
1578460526.821628,-862.3046875,-1000.0,-1000.0,-1000.0,-1000.0
1578460526.821628,-862.79296875,-1000.0,-1000.0,-1000.0,-1000.0
1578460526.821628,-862.3046875,-1000.0,-1000.0,-1000.0,-1000.0
1578460526.821628,-864.74609375,-1000.0,-1000.0,-1000.0,-1000.0
1578460526.821628,-865.72265625,-1000.0,-1000.0,-1000.0,-1000.0
1578460526.821628,-864.74609375,-1000.0,-1000.0,-1000.0,-1000.0
1578460526.821628,-860.83984375,-1000.0,-1000.0,-1000.0,-1000.0
1578460526.821628,-860.83984375,-1000.0,-1000.0,-1000.0,-1000.0
1578460526.821628,-863.76953125,-1000.0,-1000.0,-1000.0,-1000.0
1578460526.821628,-861.328125,-1000.0,-1000.0,-1000.0,-1000.0
1578460526.868503,-862.3046875,-1000.0,-1000.0,-1000.0,-1000.0
1578460526.868503,-863.76953125,-1000.0,-1000.0,-1000.0,-1000.0
1578460526.868503,-861.81640625,-1000.0,-1000.0,-1000.0,-1000.0
1578460526.868503,-862.3046875,-1000.0,-1000.0,-1000.0,-1000.0
1578460526.868503,-861.328125,-1000.0,-1000.0,-1000.0,-1000.0
1578460526.868503,-861.328125,-1000.0,-1000.0,-1000.0,-1000.0
1578460526.868503,-862.79296875,-1000.0,-1000.0,-1000.0,-1000.0
1578460526.868503,-862.79296875,-1000.0,-1000.0,-1000.0,-1000.0
1578460526.868503,-857.421875,-1000.0,-1000.0,-1000.0,-1000.0
1578460526.868503,-860.83984375,-1000.0,-1000.0,-1000.0,-1000.0
1578460526.868503,-863.28125,-1000.0,-1000.0,-1000.0,-1000.0
1578460526.868503,-859.86328125,-991.69921875,-1000.0,-1000.0,-1000.0
1578460526.915378,-862.3046875,-1000.0,-1000.0,-1000.0,-1000.0
1578460526.915378,-863.28125,-921.38671875,-1000.0,-1000.0,-1000.0
1578460526.915378,-860.83984375,-639.16015625,-1000.0,-1000.0,-1000.0
1578460526.915378,-860.83984375,-354.98046875,-1000.0,-1000.0,-1000.0
1578460526.915378,-861.81640625,-79.58984375,-1000.0,-1000.0,-1000.0
1578460526.915378,-861.328125,136.23046875,-1000.0,-1000.0,-1000.0
1578460526.915378,-862.3046875,268.06640625,-1000.0,-1000.0,-967.7734375
1578460526.915378,-860.3515625,350.5859375,-1000.0,-1000.0,-1000.0
1578460526.915378,-859.86328125,363.28125,-1000.0,-1000.0,-653.3203125
1578460526.915378,-866.2109375,324.21875,-1000.0,-1000.0,-437.5
1578460526.915378,-864.74609375,255.859375,-1000.0,-1000.0,-1000.0
1578460526.915378,-858.88671875,126.46484375,-998.046875,-1000.0,-1000.0
1578460526.962253,-860.83984375,-86.9140625,-988.28125,-1000.0,-968.75
1578460526.962253,-864.74609375,-262.20703125,-1000.0,-1000.0,-994.140625
1578460526.962253,-863.28125,-462.40234375,-770.5078125,-1000.0,-1000.0
1578460526.962253,-865.234375,-692.3828125,-91.796875,-1000.0,-982.91015625
1578460526.962253,-868.65234375,-812.5,535.64453125,-1000.0,-915.52734375
1578460526.962253,-861.81640625,-811.03515625,882.32421875,-1000.0,-925.78125
1578460526.962253,-858.88671875,-708.0078125,974.609375,-1000.0,-984.86328125
1578460526.962253,-864.2578125,-541.015625,957.51953125,-1000.0,-780.2734375
1578460526.962253,-867.1875,-328.125,970.703125,-1000.0,334.47265625
1578460526.962253,-868.1640625,-55.6640625,968.75,-1000.0,-250.0
1578460526.962253,-864.2578125,184.08203125,968.26171875,-1000.0,-1000.0
1578460526.962253,-860.83984375,313.96484375,968.26171875,-1000.0,-500.0
1578460527.009128,-863.28125,401.3671875,968.26171875,-1000.0,-323.2421875
1578460527.009128,-864.2578125,473.14453125,968.26171875,-1000.0,-1000.0
1578460527.009128,-860.3515625,553.7109375,968.75,-1000.0,-1000.0
1578460527.009128,-862.3046875,637.6953125,968.26171875,-1000.0,-346.19140625
1578460527.009128,-866.2109375,701.171875,968.26171875,-1000.0,-146.97265625
1578460527.009128,-860.3515625,770.5078125,968.26171875,-1000.0,-228.515625
1578460527.009128,-861.328125,845.703125,968.26171875,-1000.0,317.87109375
1578460527.009128,-862.79296875,912.109375,968.26171875,-1000.0,850.5859375
1578460527.009128,-863.76953125,958.0078125,968.75,-1000.0,588.37890625
1578460527.009128,-867.67578125,968.75,968.75,-1000.0,-715.8203125
1578460527.009128,-865.72265625,967.28515625,968.26171875,-1000.0,-742.1875
1578460527.009128,-865.234375,968.75,968.26171875,-1000.0,47.36328125
1578460527.056003,-866.2109375,968.26171875,968.26171875,-1000.0,-296.875
1578460527.056003,-863.76953125,968.26171875,968.26171875,-1000.0,-976.07421875
1578460527.056003,-863.28125,968.26171875,968.26171875,-1000.0,-587.890625
1578460527.056003,-864.74609375,968.26171875,968.26171875,-1000.0,34.1796875
1578460527.056003,-862.3046875,968.26171875,968.75,-1000.0,-480.95703125
1578460527.056003,-858.88671875,968.26171875,968.26171875,-1000.0,-297.8515625
1578460527.056003,-859.375,968.26171875,968.26171875,-1000.0,330.078125
1578460527.056003,-862.3046875,968.26171875,968.26171875,-1000.0,764.16015625
1578460527.056003,-864.74609375,968.26171875,968.26171875,-997.55859375,271.97265625
1578460527.056003,-864.74609375,968.26171875,968.26171875,-1000.0,-779.78515625
1578460527.056003,-857.91015625,968.26171875,968.26171875,-966.30859375,-630.859375
1578460527.056003,-860.3515625,968.26171875,968.26171875,-952.63671875,-456.54296875
1578460527.102878,-867.1875,968.75,968.26171875,-1000.0,-1000.0
1578460527.102878,-864.74609375,968.75,968.26171875,-999.51171875,-1000.0
1578460527.102878,-866.2109375,968.75,968.26171875,-993.65234375,-549.8046875
1578460527.102878,-868.65234375,968.75,968.26171875,-991.2109375,-525.87890625
1578460527.102878,-862.3046875,968.26171875,968.26171875,-1000.0,-1000.0
1578460527.102878,-854.98046875,968.26171875,968.26171875,-983.88671875,-995.60546875
1578460527.102878,-862.3046875,968.26171875,968.26171875,-889.16015625,-794.43359375
1578460527.102878,-872.0703125,968.26171875,968.26171875,-938.4765625,-892.08984375
1578460527.102878,-865.234375,968.26171875,968.26171875,-1000.0,-971.19140625
1578460527.102878,-857.91015625,968.26171875,968.75,-919.43359375,-1000.0
1578460527.102878,-864.2578125,968.75,968.26171875,-168.45703125,-130.859375
1578460527.102878,-871.09375,968.75,968.26171875,-661.62109375,552.734375
1578460527.149753,-862.79296875,968.26171875,968.26171875,-1000.0,-830.56640625
1578460527.149753,-858.3984375,968.26171875,968.26171875,-875.0,-985.3515625
1578460527.149753,-864.2578125,968.26171875,968.26171875,-940.4296875,-629.8828125
1578460527.149753,-868.65234375,968.26171875,968.26171875,-988.76953125,-908.203125
1578460527.149753,-866.2109375,968.26171875,968.26171875,-1000.0,-1000.0
1578460527.149753,-861.81640625,968.26171875,968.26171875,-585.9375,-254.39453125
1578460527.149753,-867.67578125,968.26171875,968.26171875,-500.9765625,549.31640625
1578460527.149753,-870.60546875,968.26171875,968.75,-1000.0,-386.23046875
1578460527.149753,-867.67578125,968.26171875,968.75,-1000.0,-1000.0
1578460527.149753,-865.72265625,968.26171875,968.26171875,-449.21875,-389.16015625
1578460527.149753,-867.1875,968.75,968.26171875,-422.36328125,790.52734375
1578460527.149753,-870.60546875,968.26171875,968.26171875,-1000.0,-206.0546875
1578460527.196628,-867.67578125,968.26171875,968.26171875,-979.98046875,-1000.0
1578460527.196628,-866.2109375,968.26171875,968.26171875,-981.4453125,-365.72265625
1578460527.196628,-867.1875,968.26171875,968.26171875,-983.3984375,411.1328125
1578460527.196628,-868.65234375,968.26171875,968.26171875,-1000.0,-512.20703125
1578460527.196628,-866.2109375,968.26171875,968.26171875,-981.93359375,-1000.0
1578460527.196628,-862.3046875,968.26171875,968.26171875,-770.99609375,88.8671875
1578460527.196628,-867.1875,968.26171875,968.26171875,-881.8359375,622.0703125
1578460527.196628,-868.1640625,968.75,968.26171875,-1000.0,-631.34765625
1578460527.196628,-867.67578125,968.26171875,968.26171875,-893.5546875,-1000.0
1578460527.196628,-871.09375,968.26171875,968.26171875,-177.734375,-20.5078125
1578460527.196628,-872.55859375,968.26171875,968.26171875,-710.9375,28.80859375
1578460527.196628,-869.62890625,968.75,968.75,-1000.0,-1000.0
1578460527.243503,-866.69921875,968.26171875,968.26171875,-809.5703125,-903.3203125
1578460527.243503,-867.1875,968.26171875,968.26171875,-841.30859375,-566.89453125
1578460527.243503,-868.1640625,968.26171875,968.26171875,-1000.0,-823.73046875
1578460527.243503,-867.1875,968.26171875,968.26171875,-1000.0,-1000.0
1578460527.243503,-864.2578125,968.26171875,968.26171875,-727.05078125,-707.03125
1578460527.243503,-863.76953125,968.26171875,968.26171875,-625.9765625,474.609375
1578460527.243503,-865.72265625,968.26171875,968.26171875,-875.0,678.22265625
1578460527.243503,-868.1640625,968.26171875,968.26171875,-1000.0,323.73046875
1578460527.243503,-867.1875,968.26171875,968.26171875,1.46484375,481.4453125
1578460527.243503,-871.09375,968.26171875,968.26171875,297.8515625,647.4609375
1578460527.243503,-873.046875,968.75,968.26171875,-1000.0,-363.76953125
1578460527.243503,-865.234375,968.26171875,968.26171875,-967.28515625,-1000.0
1578460527.290378,-865.234375,968.26171875,968.26171875,-793.45703125,-374.51171875
1578460527.290378,-870.1171875,968.26171875,968.26171875,-973.6328125,-125.48828125
1578460527.290378,-870.60546875,968.26171875,968.26171875,-1000.0,-912.109375
1578460527.290378,-866.69921875,968.26171875,968.26171875,-958.49609375,-1000.0
1578460527.290378,-867.1875,968.26171875,968.26171875,-683.59375,-139.6484375
1578460527.290378,-870.1171875,968.26171875,968.26171875,-560.05859375,614.2578125
1578460527.290378,-868.65234375,968.26171875,968.26171875,-918.9453125,379.8828125
1578460527.290378,-863.28125,968.26171875,968.26171875,-1000.0,83.49609375
1578460527.290378,-863.76953125,968.26171875,968.26171875,51.26953125,631.34765625
1578460527.290378,-871.58203125,968.26171875,968.26171875,-310.546875,487.79296875
1578460527.290378,-867.67578125,969.7265625,968.26171875,-1000.0,-984.375
1578460527.290378,-865.234375,958.984375,968.26171875,-884.27734375,-916.9921875
1578460527.337253,-868.1640625,976.07421875,968.26171875,-924.31640625,-222.16796875
1578460527.337253,-869.140625,900.87890625,968.26171875,-1000.0,-633.7890625
1578460527.337253,-868.65234375,563.4765625,969.23828125,-1000.0,-1000.0
1578460527.337253,-864.2578125,226.5625,964.84375,-961.9140625,-798.33984375
1578460527.337253,-864.2578125,121.58203125,975.09765625,-980.46875,32.71484375
1578460527.337253,-869.62890625,-75.68359375,954.1015625,-1000.0,437.01171875
1578460527.337253,-865.234375,-493.65234375,912.109375,-1000.0,31.73828125
1578460527.337253,-855.95703125,-707.03125,958.49609375,-927.734375,-279.296875
1578460527.337253,-865.234375,-693.84765625,973.6328125,-897.94921875,458.49609375
1578460527.337253,-861.81640625,-558.59375,965.33203125,-1000.0,-232.91015625
1578460527.337253,-853.02734375,-435.546875,969.23828125,-1000.0,-1000.0
1578460527.337253,-862.3046875,-312.98828125,968.26171875,-998.046875,-781.25
1578460527.384128,-858.88671875,-81.0546875,968.26171875,-1000.0,-788.57421875
1578460527.384128,-859.375,212.40234375,968.26171875,-1000.0,-1000.0
1578460527.384128,-860.83984375,454.1015625,968.75,-1000.0,-1000.0
1578460527.384128,-854.98046875,651.85546875,968.26171875,-1000.0,-856.93359375
1578460527.384128,-856.4453125,870.1171875,968.26171875,-997.55859375,-898.4375
1578460527.384128,-860.83984375,972.65625,968.26171875,-1000.0,-986.328125
1578460527.384128,-861.81640625,963.8671875,968.75,-998.046875,-1000.0
1578460527.384128,-864.74609375,967.28515625,968.26171875,-936.5234375,-530.76171875
1578460527.384128,-869.140625,968.75,968.26171875,-972.65625,-265.625
1578460527.384128,-864.2578125,968.26171875,968.26171875,-1000.0,-1000.0
1578460527.384128,-859.375,968.26171875,968.26171875,-996.09375,-1000.0
1578460527.384128,-857.91015625,968.26171875,968.75,-1000.0,-976.5625
1578460527.431003,-861.81640625,968.26171875,968.26171875,-1000.0,-1000.0
1578460527.431003,-862.3046875,968.26171875,968.26171875,-1000.0,-1000.0
1578460527.431003,-862.3046875,968.26171875,968.75,-989.74609375,-1000.0
1578460527.431003,-858.88671875,968.26171875,968.26171875,-1000.0,-1000.0
1578460527.431003,-854.00390625,968.26171875,968.26171875,-929.6875,-981.4453125
1578460527.431003,-860.3515625,968.75,968.26171875,-1000.0,-1000.0
1578460527.431003,-861.81640625,968.26171875,968.26171875,-270.99609375,-1000.0
1578460527.431003,-863.28125,968.26171875,968.26171875,243.65234375,-493.1640625
1578460527.431003,-871.09375,968.26171875,968.26171875,-1000.0,-710.44921875
1578460527.431003,-862.79296875,968.26171875,968.26171875,-1000.0,-1000.0
1578460527.431003,-863.28125,968.26171875,968.26171875,-931.640625,-921.38671875
1578460527.431003,-867.1875,968.26171875,968.26171875,-997.0703125,-946.77734375
1578460527.477878,-866.2109375,968.26171875,968.26171875,-1000.0,-1000.0
1578460527.477878,-864.2578125,968.26171875,968.26171875,-995.1171875,-1000.0
1578460527.477878,-862.79296875,968.26171875,968.26171875,-948.73046875,-958.984375
1578460527.477878,-865.234375,968.26171875,968.26171875,-964.84375,-955.56640625
1578460527.477878,-863.76953125,968.26171875,968.26171875,-996.09375,-989.74609375
1578460527.477878,-863.76953125,968.26171875,968.26171875,-889.16015625,-987.79296875
1578460527.477878,-867.67578125,968.26171875,968.26171875,389.16015625,213.8671875
1578460527.477878,-871.58203125,968.26171875,968.26171875,294.43359375,400.87890625
1578460527.477878,-871.58203125,968.26171875,968.26171875,-1000.0,-1000.0
1578460527.477878,-865.72265625,968.26171875,968.26171875,-863.28125,-1000.0
1578460527.477878,-863.76953125,968.26171875,968.26171875,-704.58984375,-683.59375
1578460527.477878,-865.234375,968.26171875,968.26171875,-991.69921875,-845.21484375
1578460527.524753,-862.79296875,968.26171875,968.26171875,-1000.0,-1000.0
1578460527.524753,-860.83984375,968.26171875,968.26171875,-599.609375,-897.4609375
1578460527.524753,-860.83984375,968.26171875,968.26171875,-522.94921875,-399.4140625
1578460527.524753,-863.76953125,968.26171875,968.26171875,-1000.0,-732.91015625
1578460527.524753,-863.76953125,968.26171875,968.26171875,-847.16796875,-1000.0
1578460527.524753,-865.72265625,968.26171875,968.26171875,207.03125,-84.47265625
1578460527.524753,-867.67578125,968.26171875,968.26171875,742.1875,922.36328125
1578460527.524753,-866.69921875,968.26171875,968.26171875,-375.0,687.98828125
1578460527.524753,-862.79296875,968.26171875,968.26171875,-647.4609375,-698.73046875
1578460527.524753,-865.234375,968.26171875,968.26171875,562.98828125,-583.49609375
1578460527.524753,-869.62890625,968.26171875,968.26171875,394.53125,71.77734375
1578460527.524753,-868.1640625,968.26171875,968.26171875,-786.62109375,-424.8046875
1578460527.571628,-865.234375,968.26171875,968.26171875,-255.859375,-664.55078125
1578460527.571628,-867.67578125,968.26171875,968.26171875,583.49609375,49.8046875
1578460527.571628,-868.1640625,968.26171875,968.26171875,150.390625,363.76953125
1578460527.571628,-866.69921875,968.26171875,968.26171875,-396.97265625,-177.24609375
1578460527.571628,-867.1875,968.26171875,968.26171875,292.48046875,173.828125
1578460527.571628,-869.62890625,968.26171875,968.26171875,990.234375,762.6953125
1578460527.571628,-871.09375,968.26171875,968.26171875,-996.09375,-971.19140625
1578460527.571628,-870.60546875,968.26171875,968.26171875,459.9609375,500.0
1578460527.571628,-869.62890625,968.26171875,968.26171875,463.37890625,371.58203125
1578460527.571628,-870.60546875,968.26171875,968.26171875,-962.890625,979.98046875
1578460527.571628,-872.55859375,968.26171875,968.26171875,586.42578125,711.42578125
1578460527.571628,-871.58203125,968.26171875,968.26171875,83.49609375,248.046875
1578460527.618503,-869.140625,968.26171875,968.26171875,546.875,649.4140625
1578460527.618503,-869.62890625,968.26171875,968.26171875,946.2890625,-983.3984375
1578460527.618503,-870.60546875,968.26171875,968.26171875,664.0625,849.609375
1578460527.618503,-870.60546875,968.26171875,968.26171875,313.4765625,775.390625
1578460527.618503,-869.62890625,968.75,968.26171875,606.4453125,962.40234375
1578460527.618503,-869.140625,968.26171875,968.26171875,-981.93359375,975.5859375
1578460527.618503,-871.09375,968.26171875,968.26171875,953.125,961.42578125
1578460527.618503,-872.55859375,968.26171875,968.26171875,962.890625,969.23828125
1578460527.618503,-872.55859375,968.26171875,968.26171875,958.984375,967.7734375
1578460527.618503,-872.55859375,968.26171875,967.7734375,992.1875,967.7734375
1578460527.618503,-870.60546875,968.26171875,968.26171875,837.890625,967.7734375
1578460527.618503,-869.62890625,968.26171875,968.26171875,692.3828125,967.7734375
1578460527.665378,-869.140625,968.26171875,968.26171875,746.58203125,967.7734375
1578460527.665378,-868.1640625,968.26171875,968.26171875,705.56640625,967.7734375
1578460527.665378,-870.60546875,968.26171875,968.26171875,911.62109375,967.7734375
1578460527.665378,-872.0703125,968.26171875,968.26171875,-997.0703125,967.7734375
1578460527.665378,-872.55859375,968.26171875,968.26171875,853.02734375,967.7734375
1578460527.665378,-873.53515625,968.26171875,968.26171875,885.25390625,967.7734375
1578460527.665378,-875.48828125,968.26171875,968.26171875,983.3984375,967.7734375
1578460527.665378,-872.0703125,968.26171875,968.26171875,965.33203125,967.7734375
1578460527.665378,-873.53515625,968.26171875,968.26171875,974.12109375,967.7734375
1578460527.665378,-878.41796875,968.26171875,968.26171875,816.89453125,967.7734375
1578460527.665378,-869.62890625,968.26171875,968.26171875,870.1171875,967.7734375
1578460527.665378,-865.72265625,968.26171875,968.26171875,991.69921875,967.7734375
1578460527.712253,-869.62890625,968.26171875,968.26171875,959.9609375,968.26171875
1578460527.712253,-872.55859375,968.26171875,968.26171875,968.75,967.7734375
1578460527.712253,-874.51171875,968.26171875,968.26171875,968.26171875,967.7734375
1578460527.712253,-875.48828125,968.26171875,968.26171875,968.26171875,967.7734375
1578460527.712253,-874.0234375,968.26171875,968.26171875,968.26171875,967.7734375
1578460527.712253,-875.0,968.26171875,968.26171875,968.26171875,967.7734375
1578460527.712253,-875.0,968.26171875,968.26171875,968.26171875,967.7734375
1578460527.712253,-874.0234375,968.26171875,968.26171875,968.26171875,968.26171875
1578460527.712253,-875.0,968.26171875,968.26171875,968.26171875,967.7734375
1578460527.712253,-876.46484375,968.26171875,968.26171875,968.26171875,967.7734375
1578460527.712253,-879.8828125,968.26171875,968.26171875,968.26171875,967.7734375
1578460527.712253,-880.859375,968.26171875,968.26171875,968.26171875,967.7734375
1578460527.759128,-881.34765625,968.26171875,968.26171875,968.26171875,967.7734375
1578460527.759128,-879.39453125,968.26171875,968.26171875,968.26171875,967.7734375
1578460527.759128,-878.90625,968.26171875,968.26171875,968.26171875,967.7734375
1578460527.759128,-882.32421875,968.26171875,968.26171875,968.26171875,967.7734375
1578460527.759128,-881.34765625,968.26171875,968.26171875,968.26171875,968.26171875
1578460527.759128,-882.32421875,968.26171875,968.26171875,968.26171875,967.7734375
1578460527.759128,-883.7890625,968.26171875,968.26171875,968.26171875,967.7734375
1578460527.759128,-885.25390625,968.26171875,968.26171875,968.26171875,967.7734375
1578460527.759128,-888.18359375,968.26171875,968.26171875,968.26171875,967.7734375
1578460527.759128,-886.71875,968.26171875,968.26171875,968.26171875,967.7734375
1578460527.759128,-884.765625,968.26171875,968.26171875,968.26171875,967.7734375
1578460527.759128,-885.7421875,968.26171875,968.26171875,967.7734375,967.7734375
1578460527.806003,-888.18359375,968.26171875,968.26171875,967.7734375,967.7734375
1578460527.806003,-883.7890625,968.26171875,968.26171875,968.26171875,967.7734375
1578460527.806003,-881.8359375,968.26171875,968.26171875,968.26171875,967.7734375
1578460527.806003,-892.08984375,968.26171875,968.26171875,968.26171875,967.7734375
1578460527.806003,-892.578125,968.26171875,968.26171875,968.26171875,967.7734375
1578460527.806003,-890.13671875,968.26171875,968.26171875,968.26171875,967.7734375
1578460527.806003,-893.5546875,968.26171875,968.26171875,968.26171875,967.7734375
1578460527.806003,-897.94921875,968.26171875,968.26171875,968.26171875,967.7734375
1578460527.806003,-897.94921875,968.26171875,968.26171875,968.26171875,967.7734375
1578460527.806003,-896.97265625,968.75,968.26171875,968.26171875,967.7734375
1578460527.806003,-899.4140625,968.26171875,968.26171875,968.26171875,967.7734375
1578460527.806003,-901.3671875,968.26171875,968.26171875,968.26171875,967.7734375
1578460527.852878,-901.3671875,968.26171875,968.26171875,968.26171875,967.7734375
1578460527.852878,-902.34375,968.26171875,968.26171875,968.26171875,967.7734375
1578460527.852878,-902.34375,968.26171875,968.26171875,968.26171875,967.7734375
1578460527.852878,-899.90234375,968.26171875,968.26171875,968.26171875,967.7734375
1578460527.852878,-900.390625,968.26171875,968.26171875,968.26171875,967.7734375
1578460527.852878,-902.34375,968.26171875,968.26171875,968.26171875,967.7734375
1578460527.852878,-904.78515625,968.26171875,968.26171875,968.75,967.7734375
1578460527.852878,-908.69140625,968.26171875,968.26171875,905.2734375,967.7734375
1578460527.852878,-908.203125,968.26171875,968.26171875,-893.06640625,967.7734375
1578460527.852878,-908.203125,968.26171875,968.26171875,187.98828125,967.7734375
1578460527.852878,-902.34375,968.26171875,968.26171875,-1000.0,967.7734375
1578460527.852878,-895.99609375,968.26171875,968.26171875,-984.375,967.7734375
1578460527.899753,-899.4140625,968.26171875,968.26171875,-973.14453125,968.26171875
1578460527.899753,-902.83203125,968.26171875,968.26171875,-1000.0,967.7734375
1578460527.899753,-902.34375,968.26171875,968.26171875,-1000.0,967.7734375
1578460527.899753,-900.390625,968.26171875,968.26171875,-1000.0,967.7734375
1578460527.899753,-896.97265625,968.26171875,968.26171875,-1000.0,967.7734375
1578460527.899753,-897.94921875,968.26171875,968.26171875,-977.05078125,967.7734375
1578460527.899753,-904.78515625,968.26171875,968.26171875,-976.5625,967.7734375
1578460527.899753,-902.34375,968.26171875,968.26171875,-1000.0,967.7734375
1578460527.899753,-896.97265625,968.26171875,968.26171875,135.7421875,967.7734375
1578460527.899753,-899.4140625,968.26171875,968.26171875,-896.97265625,967.7734375
1578460527.899753,-897.4609375,968.26171875,968.26171875,909.66796875,967.7734375
1578460527.899753,-895.99609375,968.26171875,968.26171875,965.8203125,967.7734375
1578460527.946628,-892.08984375,968.26171875,968.26171875,968.75,967.7734375
1578460527.946628,-891.6015625,968.26171875,968.26171875,968.26171875,967.7734375
1578460527.946628,-897.94921875,968.26171875,968.26171875,968.26171875,967.7734375
1578460527.946628,-893.5546875,968.26171875,968.26171875,968.26171875,967.7734375
1578460527.946628,-892.08984375,968.26171875,968.26171875,968.26171875,967.7734375
1578460527.946628,-893.06640625,968.26171875,968.26171875,968.26171875,967.7734375
1578460527.946628,-889.16015625,968.26171875,968.26171875,968.26171875,967.7734375
1578460527.946628,-887.20703125,968.26171875,968.26171875,968.26171875,967.7734375
1578460527.946628,-890.625,968.26171875,968.26171875,968.26171875,967.7734375
1578460527.946628,-893.5546875,968.26171875,968.26171875,968.26171875,967.7734375
1578460527.946628,-895.01953125,968.26171875,968.26171875,968.26171875,967.7734375
1578460527.946628,-889.6484375,968.26171875,968.26171875,968.26171875,967.7734375
1578460527.993503,-878.90625,970.21484375,968.26171875,968.26171875,967.7734375
1578460527.993503,-880.37109375,951.66015625,968.26171875,968.26171875,968.26171875
1578460527.993503,-879.39453125,976.5625,968.26171875,983.88671875,968.26171875
1578460527.993503,-867.67578125,831.54296875,968.26171875,893.5546875,968.26171875
1578460527.993503,-863.76953125,192.87109375,968.26171875,-912.59765625,967.7734375
1578460527.993503,-862.3046875,-654.78515625,968.26171875,565.4296875,967.7734375
1578460527.993503,-859.86328125,-1000.0,968.26171875,-891.11328125,967.7734375
1578460527.993503,-856.93359375,-980.95703125,968.26171875,-1000.0,967.7734375
1578460527.993503,-853.02734375,-997.0703125,968.26171875,-942.87109375,967.7734375
1578460527.993503,-851.07421875,-1000.0,968.26171875,-1000.0,968.26171875
1578460527.993503,-852.05078125,-1000.0,968.26171875,-1000.0,976.07421875
1578460527.993503,-852.5390625,-1000.0,968.75,-1000.0,898.92578125
1578460528.040378,-854.00390625,-1000.0,971.6796875,-1000.0,-900.87890625
1578460528.040378,-858.88671875,-1000.0,935.05859375,-937.5,367.67578125
1578460528.040378,-855.95703125,-1000.0,-999.0234375,-1000.0,-987.79296875
1578460528.040378,-852.5390625,-1000.0,721.6796875,-220.21484375,-1000.0
1578460528.040378,-861.328125,-1000.0,-424.8046875,-960.44921875,-958.984375
1578460528.040378,-867.67578125,-1000.0,-1000.0,951.66015625,-1000.0
1578460528.040378,-866.69921875,-1000.0,-968.75,940.91796875,-1000.0
1578460528.040378,-868.65234375,-1000.0,-994.140625,975.09765625,-1000.0
1578460528.040378,-873.046875,-1000.0,-1000.0,968.26171875,-1000.0
1578460528.040378,-872.0703125,-1000.0,-1000.0,969.23828125,-1000.0
1578460528.040378,-867.67578125,-1000.0,-1000.0,905.76171875,-1000.0
1578460528.040378,-866.2109375,-1000.0,-1000.0,-893.06640625,-1000.0
1578460528.087253,-865.72265625,-1000.0,-1000.0,187.98828125,-1000.0
1578460528.087253,-864.74609375,-1000.0,-1000.0,-1000.0,-1000.0
1578460528.087253,-860.83984375,-1000.0,-1000.0,-984.375,-1000.0
1578460528.087253,-860.83984375,-1000.0,-1000.0,-973.14453125,-1000.0
1578460528.087253,-861.328125,-1000.0,-1000.0,-1000.0,-1000.0
1578460528.087253,-859.375,-1000.0,-1000.0,-1000.0,-1000.0
1578460528.087253,-854.00390625,-1000.0,-1000.0,-1000.0,-1000.0
1578460528.087253,-848.6328125,-1000.0,-1000.0,-1000.0,-1000.0
1578460528.087253,-847.65625,-1000.0,-1000.0,-1000.0,-1000.0
1578460528.087253,-842.7734375,-1000.0,-1000.0,-1000.0,-1000.0
1578460528.087253,-832.51953125,-1000.0,-1000.0,-1000.0,-1000.0
1578460528.087253,-826.171875,-1000.0,-1000.0,-1000.0,-1000.0
1578460528.134128,-825.1953125,-1000.0,-1000.0,-1000.0,-1000.0
1578460528.134128,-819.82421875,-1000.0,-1000.0,-1000.0,-1000.0
1578460528.134128,-814.94140625,-1000.0,-1000.0,-1000.0,-1000.0
1578460528.134128,-810.546875,-1000.0,-1000.0,-1000.0,-1000.0
1578460528.134128,-805.17578125,-1000.0,-1000.0,-1000.0,-1000.0
1578460528.134128,-804.19921875,-1000.0,-1000.0,-1000.0,-1000.0
1578460528.134128,-800.29296875,-1000.0,-1000.0,-1000.0,-1000.0
1578460528.134128,-791.50390625,-1000.0,-1000.0,-1000.0,-1000.0
1578460528.134128,-788.0859375,-1000.0,-1000.0,-1000.0,-1000.0
1578460528.134128,-780.2734375,-1000.0,-1000.0,-1000.0,-1000.0
1578460528.134128,-770.5078125,-1000.0,-1000.0,-1000.0,-1000.0
1578460528.134128,-760.25390625,-1000.0,-1000.0,-1000.0,-1000.0
1578460528.181003,-751.46484375,-1000.0,-1000.0,-1000.0,-1000.0
1578460528.181003,-748.53515625,-1000.0,-1000.0,-1000.0,-1000.0
1578460528.181003,-746.09375,-1000.0,-1000.0,-1000.0,-1000.0
1578460528.181003,-742.67578125,-1000.0,-1000.0,-1000.0,-1000.0
1578460528.181003,-737.79296875,-1000.0,-1000.0,-1000.0,-1000.0
1578460528.181003,-737.3046875,-1000.0,-1000.0,-1000.0,-1000.0
1578460528.181003,-732.91015625,-1000.0,-1000.0,-1000.0,-1000.0
1578460528.181003,-725.09765625,-1000.0,-1000.0,-1000.0,-1000.0
1578460528.181003,-718.75,-1000.0,-1000.0,-1000.0,-1000.0
1578460528.181003,-710.9375,-1000.0,-1000.0,-1000.0,-1000.0
1578460528.181003,-706.0546875,-1000.0,-1000.0,-1000.0,-1000.0
1578460528.181003,-697.75390625,-1000.0,-1000.0,-1000.0,-1000.0
1578460528.227878,-687.5,-1000.0,-1000.0,-1000.0,-1000.0
1578460528.227878,-680.17578125,-1000.0,-1000.0,-1000.0,-1000.0
1578460528.227878,-675.78125,-1000.0,-1000.0,-1000.0,-1000.0
1578460528.227878,-669.921875,-1000.0,-1000.0,-1000.0,-1000.0
1578460528.227878,-664.0625,-1000.0,-1000.0,-1000.0,-1000.0
1578460528.227878,-660.64453125,-1000.0,-1000.0,-1000.0,-1000.0
1578460528.227878,-657.71484375,-1000.0,-1000.0,-1000.0,-1000.0
1578460528.227878,-654.296875,-1000.0,-1000.0,-1000.0,-1000.0
1578460528.227878,-648.92578125,-1000.0,-1000.0,-1000.0,-1000.0
1578460528.227878,-643.06640625,-1000.0,-1000.0,-1000.0,-1000.0
1578460528.227878,-645.5078125,-1000.0,-1000.0,-1000.0,-1000.0
1578460528.227878,-646.97265625,-1000.0,-1000.0,-1000.0,-1000.0
1578460528.274753,-645.01953125,-1000.0,-1000.0,-1000.0,-1000.0
1578460528.274753,-643.5546875,-1000.0,-1000.0,-1000.0,-1000.0
1578460528.274753,-645.5078125,-1000.0,-1000.0,-1000.0,-1000.0
1578460528.274753,-646.484375,-1000.0,-1000.0,-1000.0,-1000.0
1578460528.274753,-642.08984375,-1000.0,-1000.0,-1000.0,-1000.0
1578460528.274753,-641.6015625,-1000.0,-1000.0,-1000.0,-1000.0
1578460528.274753,-645.5078125,-1000.0,-1000.0,-1000.0,-1000.0
1578460528.274753,-644.04296875,-1000.0,-1000.0,-1000.0,-1000.0
1578460528.274753,-644.53125,-1000.0,-1000.0,-1000.0,-1000.0
1578460528.274753,-641.6015625,-1000.0,-1000.0,-1000.0,-1000.0
1578460528.274753,-709.47265625,-1000.0,-1000.0,-1000.0,-1000.0
1578460528.274753,-795.8984375,-942.87109375,-1000.0,-933.10546875,-1000.0
1578460528.321628,-785.15625,-1000.0,-1000.0,-1000.0,-1000.0
1578460528.321628,-759.765625,-586.42578125,-1000.0,-329.58984375,-1000.0
1578460528.321628,-751.953125,746.58203125,-1000.0,991.69921875,-1000.0
1578460528.321628,-748.046875,-980.95703125,-1000.0,971.6796875,-1000.0
1578460528.321628,-745.60546875,920.41015625,-1000.0,932.12890625,-1000.0
1578460528.321628,-750.48828125,977.05078125,-1000.0,978.02734375,-1000.0
1578460528.321628,-747.55859375,968.75,-1000.0,968.26171875,-1000.0
1578460528.321628,-745.1171875,968.26171875,-974.12109375,968.26171875,-1000.0
1578460528.321628,-746.58203125,968.75,-1000.0,968.26171875,-1000.0
1578460528.321628,-741.69921875,968.26171875,-787.59765625,968.26171875,-1000.0
1578460528.321628,-743.1640625,968.26171875,300.29296875,968.26171875,-1000.0
1578460528.321628,-742.67578125,968.26171875,-987.3046875,968.26171875,-1000.0
1578460528.368503,-743.65234375,968.26171875,942.3828125,968.26171875,-1000.0
1578460528.368503,-746.58203125,968.26171875,957.51953125,968.26171875,-1000.0
1578460528.368503,-749.51171875,968.26171875,971.6796875,968.26171875,-1000.0
1578460528.368503,-757.32421875,968.26171875,968.26171875,968.26171875,-1000.0
1578460528.368503,-765.13671875,968.26171875,968.26171875,968.26171875,-1000.0
1578460528.368503,-768.06640625,968.26171875,968.26171875,968.26171875,-1000.0
1578460528.368503,-770.99609375,968.26171875,968.26171875,968.26171875,-1000.0
1578460528.368503,-775.390625,968.26171875,968.26171875,968.26171875,-1000.0
1578460528.368503,-771.484375,968.26171875,968.26171875,968.26171875,-1000.0
1578460528.368503,-778.3203125,968.26171875,968.26171875,968.26171875,-1000.0
1578460528.368503,-786.62109375,968.26171875,968.26171875,968.26171875,-1000.0
1578460528.368503,-781.25,968.26171875,968.26171875,968.26171875,-1000.0
1578460528.415378,-784.66796875,968.26171875,968.26171875,968.26171875,-1000.0
1578460528.415378,-791.9921875,968.26171875,968.26171875,968.26171875,-1000.0
1578460528.415378,-792.48046875,968.26171875,968.26171875,968.26171875,-1000.0
1578460528.415378,-788.57421875,968.26171875,968.26171875,968.26171875,-1000.0
1578460528.415378,-792.48046875,968.26171875,968.26171875,968.26171875,-1000.0
1578460528.415378,-799.31640625,968.26171875,968.26171875,968.26171875,-1000.0
1578460528.415378,-806.15234375,968.26171875,968.26171875,968.26171875,-935.05859375
1578460528.415378,-805.17578125,968.26171875,968.26171875,968.26171875,-1000.0
1578460528.415378,-806.640625,968.26171875,968.26171875,968.26171875,-374.51171875
1578460528.415378,-817.87109375,968.26171875,968.26171875,968.26171875,157.2265625
1578460528.415378,-818.359375,968.26171875,968.26171875,968.26171875,-444.82421875
1578460528.415378,-815.91796875,968.26171875,968.26171875,968.26171875,588.8671875
1578460528.462253,-816.89453125,968.26171875,968.26171875,968.26171875,-944.3359375
1578460528.462253,-818.359375,968.26171875,968.26171875,968.26171875,922.8515625
1578460528.462253,-816.89453125,968.26171875,968.26171875,968.26171875,970.21484375
1578460528.462253,-816.40625,968.26171875,968.26171875,968.26171875,968.75
1578460528.462253,-819.3359375,968.26171875,968.26171875,968.26171875,967.7734375
1578460528.462253,-819.82421875,968.26171875,968.26171875,973.14453125,968.26171875
1578460528.462253,-818.359375,968.26171875,968.26171875,900.390625,967.7734375
1578460528.462253,-822.75390625,968.26171875,968.26171875,-891.6015625,967.7734375
1578460528.462253,-828.125,968.26171875,968.26171875,267.578125,968.26171875
1578460528.462253,-829.58984375,968.26171875,968.26171875,-1000.0,967.7734375
1578460528.462253,-829.1015625,968.26171875,968.26171875,-997.0703125,967.7734375
1578460528.462253,-833.984375,968.26171875,968.26171875,-966.796875,967.7734375
1578460528.509128,-834.47265625,968.26171875,968.26171875,-1000.0,967.7734375
1578460528.509128,-835.44921875,968.26171875,968.75,-1000.0,967.7734375
1578460528.509128,-836.42578125,968.26171875,968.75,-1000.0,967.7734375
1578460528.509128,-835.9375,968.26171875,968.26171875,-1000.0,967.7734375
1578460528.509128,-833.984375,968.26171875,968.75,-1000.0,967.7734375
1578460528.509128,-831.0546875,968.26171875,968.26171875,-1000.0,967.7734375
1578460528.509128,-829.58984375,968.26171875,968.26171875,-1000.0,967.7734375
1578460528.509128,-834.47265625,968.26171875,968.26171875,-1000.0,967.7734375
1578460528.509128,-839.35546875,968.26171875,968.26171875,-991.2109375,967.7734375
1578460528.509128,-835.9375,968.26171875,968.26171875,-952.63671875,967.7734375
1578460528.509128,-832.03125,968.26171875,968.26171875,-1000.0,967.7734375
1578460528.509128,-832.51953125,968.26171875,968.26171875,-57.12890625,967.7734375
1578460528.556003,-832.03125,968.26171875,968.26171875,-921.875,967.7734375
1578460528.556003,-831.0546875,968.26171875,968.26171875,930.6640625,967.7734375
1578460528.556003,-831.54296875,968.26171875,968.26171875,890.13671875,967.7734375
1578460528.556003,-831.54296875,968.26171875,968.26171875,-890.13671875,967.7734375
1578460528.556003,-832.03125,968.26171875,968.26171875,187.98828125,967.7734375
1578460528.556003,-831.54296875,968.26171875,968.26171875,-1000.0,967.7734375
1578460528.556003,-834.47265625,968.26171875,968.26171875,-984.375,968.26171875
1578460528.556003,-837.890625,968.26171875,968.26171875,-973.14453125,967.7734375
1578460528.556003,-838.37890625,968.26171875,968.26171875,-1000.0,967.7734375
1578460528.556003,-831.54296875,968.26171875,968.26171875,-1000.0,967.7734375
1578460528.556003,-827.1484375,968.26171875,968.26171875,-1000.0,967.7734375
1578460528.556003,-825.68359375,968.26171875,968.26171875,-1000.0,967.7734375
1578460528.602878,-819.82421875,969.7265625,968.26171875,-990.234375,967.7734375
1578460528.602878,-822.265625,958.0078125,968.26171875,-954.1015625,967.7734375
1578460528.602878,-823.2421875,997.0703125,968.26171875,-1000.0,967.7734375
1578460528.602878,-826.171875,864.74609375,968.26171875,-44.43359375,967.7734375
1578460528.602878,-831.0546875,790.52734375,968.26171875,-919.43359375,967.7734375
1578460528.602878,-831.54296875,972.65625,968.26171875,928.22265625,967.7734375
1578460528.602878,-838.37890625,974.12109375,968.26171875,954.1015625,967.7734375
1578460528.602878,-845.21484375,961.9140625,968.26171875,971.19140625,979.00390625
1578460528.602878,-852.5390625,969.7265625,968.26171875,968.26171875,898.92578125
1578460528.602878,-856.93359375,968.26171875,968.26171875,968.26171875,-914.55078125
1578460528.602878,-856.4453125,968.26171875,968.26171875,968.26171875,486.328125
1578460528.602878,-853.02734375,968.26171875,968.26171875,968.26171875,-904.78515625
1578460528.649753,-847.16796875,968.26171875,968.26171875,968.26171875,-1000.0
1578460528.649753,-842.7734375,968.26171875,968.26171875,968.26171875,-951.171875
1578460528.649753,-843.26171875,968.26171875,968.26171875,968.26171875,-1000.0
1578460528.649753,-845.21484375,968.26171875,968.26171875,968.26171875,-981.93359375
1578460528.649753,-846.19140625,968.26171875,968.26171875,968.26171875,-968.26171875
1578460528.649753,-852.05078125,968.26171875,968.26171875,968.26171875,-1000.0
1578460528.649753,-862.79296875,968.26171875,968.26171875,968.26171875,66.89453125
1578460528.649753,-865.234375,968.26171875,968.26171875,968.26171875,-906.25
1578460528.649753,-866.69921875,968.26171875,968.26171875,968.26171875,916.50390625
1578460528.649753,-873.046875,968.26171875,968.26171875,968.26171875,960.9375
1578460528.649753,-873.53515625,968.26171875,968.26171875,968.26171875,969.23828125
1578460528.649753,-879.8828125,968.26171875,968.26171875,968.26171875,967.7734375
1578460528.696628,-884.765625,968.26171875,968.26171875,968.26171875,967.7734375
1578460528.696628,-892.08984375,968.26171875,968.26171875,968.26171875,967.7734375
1578460528.696628,-889.6484375,968.26171875,968.26171875,968.26171875,967.7734375
1578460528.696628,-877.9296875,968.26171875,968.26171875,968.26171875,967.7734375
1578460528.696628,-882.32421875,968.26171875,968.26171875,968.26171875,967.7734375
1578460528.696628,-878.41796875,968.26171875,968.26171875,968.26171875,967.7734375
1578460528.696628,-894.53125,968.26171875,968.26171875,968.26171875,967.7734375
1578460528.696628,-906.73828125,968.26171875,969.23828125,968.26171875,967.7734375
1578460528.696628,-888.18359375,972.16796875,965.33203125,968.26171875,967.7734375
1578460528.696628,-892.578125,901.85546875,911.1328125,968.26171875,967.7734375
1578460528.696628,-901.85546875,-893.06640625,-899.4140625,968.26171875,967.7734375
1578460528.696628,-917.48046875,255.859375,125.0,968.26171875,967.7734375
1578460528.743503,-928.22265625,-1000.0,-1000.0,968.75,967.7734375
1578460528.743503,-906.73828125,-995.60546875,-975.5859375,905.2734375,967.7734375
1578460528.743503,-898.92578125,-967.7734375,-978.02734375,-893.06640625,967.7734375
1578460528.743503,-901.85546875,-1000.0,-1000.0,187.98828125,967.7734375
1578460528.743503,-893.5546875,-1000.0,-1000.0,-1000.0,967.7734375
1578460528.743503,-877.44140625,-1000.0,-1000.0,-984.375,967.7734375
1578460528.743503,-869.140625,-1000.0,-1000.0,-973.14453125,967.7734375
1578460528.743503,-874.51171875,-1000.0,-1000.0,-1000.0,967.7734375
1578460528.743503,-871.09375,-1000.0,-1000.0,-1000.0,967.7734375
1578460528.743503,-864.2578125,-1000.0,-1000.0,-1000.0,970.21484375
1578460528.743503,-855.46875,-1000.0,-1000.0,-1000.0,959.9609375
1578460528.743503,-846.19140625,-1000.0,-1000.0,-1000.0,920.8984375
1578460528.790378,-845.21484375,-1000.0,-1000.0,-1000.0,-920.8984375
1578460528.790378,-846.6796875,-1000.0,-1000.0,-1000.0,62.98828125
1578460528.790378,-841.796875,-1000.0,-1000.0,-1000.0,-1000.0
1578460528.790378,-832.51953125,-930.17578125,-985.3515625,-1000.0,-971.6796875
1578460528.790378,-840.8203125,-1000.0,-969.7265625,-1000.0,-981.4453125
1578460528.790378,-847.65625,-439.94140625,-1000.0,-1000.0,-1000.0
1578460528.790378,-848.14453125,937.5,0.0,-1000.0,-1000.0
1578460528.790378,-853.515625,992.67578125,-945.3125,-1000.0,-1000.0
1578460528.790378,-859.86328125,923.33984375,936.03515625,-1000.0,-1000.0
1578460528.790378,-873.53515625,980.46875,953.125,-1000.0,-1000.0
1578460528.790378,-882.8125,968.26171875,972.65625,-1000.0,-1000.0
1578460528.790378,-891.11328125,968.26171875,968.26171875,-1000.0,-1000.0
1578460528.837253,-899.4140625,968.26171875,968.26171875,-1000.0,-995.60546875
1578460528.837253,-907.71484375,968.26171875,968.26171875,-1000.0,-945.80078125
1578460528.837253,-906.25,968.26171875,968.26171875,-1000.0,-1000.0
1578460528.837253,-903.80859375,979.4921875,975.5859375,-1000.0,-134.765625
1578460528.837253,-906.73828125,904.296875,899.90234375,-1000.0,-941.89453125
1578460528.837253,-902.34375,-932.6171875,-898.92578125,-1000.0,940.4296875
1578460528.837253,-907.2265625,571.77734375,338.8671875,-1000.0,946.77734375
1578460528.837253,-907.2265625,-812.5,-1000.0,-1000.0,972.65625
1578460528.837253,-899.90234375,-1000.0,-1000.0,-1000.0,967.7734375
1578460528.837253,-896.97265625,-947.265625,-960.9375,-1000.0,967.7734375
1578460528.837253,-898.92578125,-1000.0,-1000.0,-1000.0,967.7734375
1578460528.837253,-896.97265625,-1000.0,-1000.0,-1000.0,967.7734375
1578460528.884128,-885.25390625,-1000.0,-1000.0,-1000.0,967.7734375
1578460528.884128,-880.859375,-1000.0,-1000.0,-1000.0,967.7734375
1578460528.884128,-885.7421875,-1000.0,-1000.0,-1000.0,967.7734375
1578460528.884128,-883.30078125,-1000.0,-1000.0,-1000.0,967.7734375
1578460528.884128,-874.51171875,-1000.0,-1000.0,-1000.0,967.7734375
1578460528.884128,-874.0234375,-1000.0,-1000.0,-1000.0,967.7734375
1578460528.884128,-878.90625,-1000.0,-1000.0,-1000.0,968.75
1578460528.884128,-880.37109375,-1000.0,-1000.0,-1000.0,964.84375
1578460528.884128,-875.48828125,-1000.0,-1000.0,-1000.0,911.1328125
1578460528.884128,-868.1640625,-1000.0,-1000.0,-1000.0,-900.87890625
1578460528.884128,-870.60546875,-1000.0,-1000.0,-1000.0,130.859375
1578460528.884128,-871.09375,-1000.0,-1000.0,-1000.0,-1000.0
1578460528.931003,-856.4453125,-1000.0,-1000.0,-1000.0,-977.05078125
1578460528.931003,-838.37890625,-1000.0,-1000.0,-1000.0,-977.5390625
1578460528.931003,-826.171875,-1000.0,-1000.0,-1000.0,-1000.0
1578460528.931003,-822.75390625,-1000.0,-1000.0,-1000.0,-1000.0
1578460528.931003,-811.5234375,-1000.0,-1000.0,-1000.0,-1000.0
1578460528.931003,-787.59765625,-1000.0,-1000.0,-1000.0,-1000.0
1578460528.931003,-774.90234375,-1000.0,-1000.0,-1000.0,-1000.0
1578460528.931003,-777.34375,-1000.0,-1000.0,-1000.0,-1000.0
1578460528.931003,-774.4140625,-1000.0,-1000.0,-1000.0,-1000.0
1578460528.931003,-758.7890625,-1000.0,-1000.0,-1000.0,-1000.0
1578460528.931003,-752.9296875,-1000.0,-1000.0,-1000.0,-1000.0
1578460528.931003,-760.25390625,-1000.0,-1000.0,-1000.0,-1000.0
1578460528.977878,-760.7421875,-1000.0,-1000.0,-1000.0,-1000.0
1578460528.977878,-749.0234375,-1000.0,-1000.0,-1000.0,-1000.0
1578460528.977878,-736.81640625,-1000.0,-1000.0,-1000.0,-1000.0
1578460528.977878,-735.3515625,-1000.0,-1000.0,-1000.0,-1000.0
1578460528.977878,-733.88671875,-962.40234375,-930.17578125,-1000.0,-1000.0
1578460528.977878,-727.05078125,-1000.0,-1000.0,-1000.0,-1000.0
1578460528.977878,-722.65625,-981.4453125,-598.14453125,-1000.0,-1000.0
1578460528.977878,-724.609375,328.125,827.63671875,-1000.0,-1000.0
1578460528.977878,-743.1640625,-908.69140625,-977.05078125,-1000.0,-1000.0
1578460528.977878,-759.27734375,905.2734375,912.59765625,-1000.0,-1000.0
1578460528.977878,-759.27734375,972.65625,982.91015625,-1000.0,-1000.0
1578460528.977878,-765.625,968.75,968.26171875,-1000.0,-1000.0
1578460529.024753,-791.9921875,968.26171875,968.26171875,-1000.0,-1000.0
1578460529.024753,-813.96484375,968.26171875,968.26171875,-1000.0,-1000.0
1578460529.024753,-824.21875,968.26171875,968.26171875,-1000.0,-1000.0
1578460529.024753,-834.47265625,968.26171875,968.26171875,-1000.0,-1000.0
1578460529.024753,-855.95703125,968.26171875,968.26171875,-1000.0,-930.6640625
1578460529.024753,-883.7890625,968.26171875,968.26171875,-1000.0,-1000.0
1578460529.024753,-891.11328125,968.75,968.26171875,-1000.0,-477.5390625
1578460529.024753,-886.23046875,968.26171875,968.75,-1000.0,905.76171875
1578460529.024753,-896.97265625,968.26171875,968.26171875,-1000.0,998.53515625
1578460529.024753,-915.52734375,968.26171875,968.26171875,-1000.0,920.8984375
1578460529.024753,-922.36328125,968.26171875,968.26171875,-1000.0,980.46875
1578460529.024753,-920.41015625,968.26171875,968.26171875,-1000.0,967.7734375
1578460529.071628,-924.31640625,968.26171875,968.26171875,-1000.0,968.26171875
1578460529.071628,-937.5,968.26171875,968.26171875,-1000.0,967.7734375
1578460529.071628,-943.84765625,968.26171875,968.26171875,-1000.0,967.7734375
1578460529.071628,-937.01171875,968.26171875,968.26171875,-1000.0,967.7734375
1578460529.071628,-934.08203125,968.26171875,968.26171875,-1000.0,967.7734375
1578460529.071628,-943.84765625,968.26171875,968.26171875,-1000.0,967.7734375
1578460529.071628,-951.66015625,968.26171875,968.26171875,-1000.0,967.7734375
1578460529.071628,-944.3359375,968.26171875,968.75,-1000.0,967.7734375
1578460529.071628,-937.01171875,968.26171875,968.26171875,-1000.0,967.7734375
1578460529.071628,-946.2890625,968.26171875,968.26171875,-1000.0,967.7734375
1578460529.071628,-959.47265625,968.26171875,968.26171875,-1000.0,967.7734375
1578460529.071628,-955.078125,968.26171875,968.75,-1000.0,967.7734375
1578460529.118503,-944.3359375,968.26171875,968.26171875,-1000.0,967.7734375
1578460529.118503,-946.2890625,968.26171875,968.26171875,-1000.0,967.7734375
1578460529.118503,-954.58984375,968.26171875,968.75,-1000.0,967.7734375
1578460529.118503,-955.078125,968.26171875,968.26171875,-1000.0,967.7734375
1578460529.118503,-946.2890625,968.26171875,968.26171875,-1000.0,967.7734375
1578460529.118503,-943.84765625,968.75,968.26171875,-1000.0,967.7734375
1578460529.118503,-952.63671875,968.26171875,968.26171875,-1000.0,967.7734375
1578460529.118503,-958.49609375,968.26171875,968.26171875,-1000.0,967.7734375
1578460529.118503,-949.70703125,968.26171875,977.5390625,-1000.0,968.26171875
1578460529.118503,-946.77734375,968.26171875,899.4140625,-1000.0,967.7734375
1578460529.118503,-954.58984375,968.26171875,-904.78515625,-1000.0,967.7734375
1578460529.118503,-958.984375,968.26171875,405.2734375,-1000.0,967.7734375
1578460529.165378,-956.0546875,968.26171875,-961.9140625,-1000.0,967.7734375
1578460529.165378,-948.73046875,968.26171875,-1000.0,-1000.0,967.7734375
1578460529.165378,-951.171875,968.26171875,-956.54296875,-1000.0,967.7734375
1578460529.165378,-955.078125,968.26171875,-1000.0,-1000.0,967.7734375
1578460529.165378,-952.1484375,968.26171875,-1000.0,-1000.0,967.7734375
1578460529.165378,-945.3125,968.26171875,-1000.0,-1000.0,967.7734375
1578460529.165378,-941.89453125,968.26171875,-1000.0,-1000.0,967.7734375
1578460529.165378,-945.3125,968.26171875,-1000.0,-1000.0,967.7734375
1578460529.165378,-945.3125,968.26171875,-1000.0,-1000.0,967.7734375
1578460529.165378,-937.01171875,968.26171875,-1000.0,-1000.0,967.7734375
1578460529.165378,-935.05859375,968.26171875,-1000.0,-1000.0,967.7734375
1578460529.165378,-936.03515625,968.26171875,-1000.0,-1000.0,967.7734375
1578460529.212253,-942.3828125,968.26171875,-1000.0,-1000.0,967.7734375
1578460529.212253,-939.94140625,968.26171875,-1000.0,-1000.0,967.7734375
1578460529.212253,-927.24609375,968.26171875,-1000.0,-1000.0,968.26171875
1578460529.212253,-932.6171875,968.26171875,-1000.0,-1000.0,967.7734375
1578460529.212253,-939.94140625,968.26171875,-1000.0,-1000.0,967.7734375
1578460529.212253,-929.6875,968.26171875,-1000.0,-1000.0,967.7734375
1578460529.212253,-921.875,968.75,-1000.0,-933.10546875,967.7734375
1578460529.212253,-924.31640625,968.75,-1000.0,-1000.0,967.7734375
1578460529.212253,-927.734375,968.75,-1000.0,-310.546875,968.26171875
1578460529.212253,-924.31640625,968.26171875,-1000.0,-998.53515625,982.421875
1578460529.212253,-916.50390625,968.26171875,-1000.0,968.26171875,898.92578125
1578460529.212253,-914.55078125,968.26171875,-1000.0,933.10546875,-928.22265625
1578460529.259128,-920.8984375,968.26171875,-1000.0,977.5390625,608.3984375
1578460529.259128,-924.8046875,968.75,-1000.0,968.26171875,-821.77734375
1578460529.259128,-918.9453125,968.26171875,-1000.0,968.26171875,-1000.0
1578460529.259128,-921.38671875,968.26171875,-1000.0,968.26171875,-928.7109375
1578460529.259128,-931.15234375,968.26171875,-1000.0,968.26171875,-1000.0
1578460529.259128,-934.08203125,968.26171875,-1000.0,968.26171875,-1000.0
1578460529.259128,-930.6640625,968.26171875,-1000.0,968.26171875,-999.51171875
1578460529.259128,-930.17578125,968.26171875,-1000.0,968.26171875,-1000.0
1578460529.259128,-935.05859375,968.26171875,-1000.0,968.26171875,-1000.0
1578460529.259128,-936.03515625,968.26171875,-1000.0,968.26171875,-955.56640625
1578460529.259128,-931.15234375,968.26171875,-1000.0,968.26171875,-1000.0
1578460529.259128,-923.828125,968.26171875,-1000.0,968.26171875,-552.24609375
1578460529.306003,-926.7578125,968.75,-1000.0,968.26171875,317.87109375
1578460529.306003,-932.6171875,968.26171875,-1000.0,968.26171875,-195.80078125
1578460529.306003,-933.10546875,968.26171875,-1000.0,968.26171875,276.3671875
1578460529.306003,-930.17578125,968.75,-1000.0,968.26171875,-933.10546875
1578460529.306003,-930.17578125,968.26171875,-1000.0,968.26171875,937.01171875
1578460529.306003,-935.05859375,968.26171875,-1000.0,968.26171875,961.42578125
1578460529.306003,-941.40625,968.26171875,-1000.0,968.26171875,970.21484375
1578460529.306003,-940.91796875,968.26171875,-1000.0,967.7734375,967.7734375
1578460529.306003,-937.98828125,968.26171875,-1000.0,968.26171875,968.26171875
1578460529.306003,-940.91796875,968.26171875,-1000.0,968.26171875,967.7734375
1578460529.306003,-945.80078125,968.26171875,-1000.0,968.26171875,967.7734375
1578460529.306003,-943.84765625,968.75,-1000.0,968.26171875,967.7734375
1578460529.352878,-941.40625,968.26171875,-1000.0,968.26171875,967.7734375
1578460529.352878,-947.75390625,968.26171875,-1000.0,968.26171875,967.7734375
1578460529.352878,-955.078125,968.26171875,-1000.0,968.26171875,967.7734375
1578460529.352878,-955.078125,968.26171875,-1000.0,968.26171875,967.7734375
1578460529.352878,-952.1484375,968.26171875,-1000.0,968.26171875,967.7734375
1578460529.352878,-956.0546875,968.26171875,-1000.0,968.26171875,967.7734375
1578460529.352878,-966.796875,968.26171875,-1000.0,968.26171875,967.7734375
1578460529.352878,-971.6796875,968.26171875,-1000.0,968.26171875,968.26171875
1578460529.352878,-967.28515625,968.26171875,-1000.0,968.26171875,967.7734375
1578460529.352878,-969.7265625,968.26171875,-1000.0,968.26171875,967.7734375
1578460529.352878,-979.00390625,968.26171875,-1000.0,968.26171875,967.7734375
1578460529.352878,-981.93359375,968.26171875,-1000.0,968.26171875,967.7734375
1578460529.399753,-978.515625,968.26171875,-1000.0,968.26171875,968.26171875
1578460529.399753,-979.00390625,968.26171875,-1000.0,968.26171875,967.7734375
1578460529.399753,-985.83984375,968.26171875,-1000.0,968.26171875,967.7734375
1578460529.399753,-992.67578125,968.26171875,-1000.0,968.26171875,967.7734375
1578460529.399753,-991.69921875,968.26171875,-1000.0,968.26171875,967.7734375
1578460529.399753,-993.1640625,968.26171875,-1000.0,968.26171875,967.7734375
1578460529.399753,-1000.0,968.26171875,-1000.0,968.26171875,967.7734375
1578460529.399753,-1000.0,968.26171875,-982.91015625,968.26171875,967.7734375
1578460529.399753,-1000.0,968.26171875,-1000.0,968.26171875,967.7734375
1578460529.399753,-1000.0,968.26171875,-875.0,968.26171875,967.7734375
1578460529.399753,-1000.0,968.26171875,-583.0078125,968.26171875,967.7734375
1578460529.399753,-1000.0,971.19140625,-138.671875,977.05078125,967.7734375
1578460529.446628,-999.51171875,961.42578125,742.67578125,928.22265625,967.7734375
1578460529.446628,-1000.0,927.734375,-997.0703125,995.60546875,968.26171875
1578460529.446628,-1000.0,-958.49609375,938.4765625,864.2578125,967.7734375
1578460529.446628,-1000.0,135.7421875,970.703125,-410.64453125,967.7734375
1578460529.446628,-1000.0,-1000.0,968.75,-1000.0,967.7734375
1578460529.446628,-1000.0,-994.140625,968.26171875,-947.75390625,967.7734375
1578460529.446628,-1000.0,-973.14453125,968.26171875,-1000.0,967.7734375
1578460529.446628,-1000.0,-1000.0,968.26171875,-1000.0,967.7734375
1578460529.446628,-1000.0,-1000.0,968.26171875,-1000.0,967.7734375
1578460529.446628,-1000.0,-1000.0,968.26171875,-1000.0,967.7734375
1578460529.446628,-1000.0,-1000.0,968.26171875,-1000.0,967.7734375
1578460529.446628,-1000.0,-1000.0,968.26171875,-1000.0,967.7734375
1578460529.493503,-1000.0,-1000.0,968.26171875,-1000.0,967.7734375
1578460529.493503,-1000.0,-1000.0,968.26171875,-1000.0,967.7734375
1578460529.493503,-1000.0,-1000.0,968.26171875,-1000.0,967.7734375
1578460529.493503,-1000.0,-1000.0,968.26171875,-1000.0,967.7734375
1578460529.493503,-1000.0,-1000.0,968.26171875,-1000.0,967.7734375
1578460529.493503,-1000.0,-1000.0,968.26171875,-1000.0,967.7734375
1578460529.493503,-1000.0,-1000.0,968.26171875,-1000.0,967.7734375
1578460529.493503,-1000.0,-1000.0,968.26171875,-1000.0,967.7734375
1578460529.493503,-1000.0,-1000.0,968.26171875,-1000.0,967.7734375
1578460529.493503,-1000.0,-1000.0,968.26171875,-1000.0,967.7734375
1578460529.493503,-1000.0,-1000.0,968.75,-1000.0,967.7734375
1578460529.493503,-1000.0,-1000.0,963.37890625,-1000.0,967.7734375
1578460529.540378,-1000.0,-1000.0,974.12109375,-1000.0,967.7734375
1578460529.540378,-1000.0,-1000.0,923.33984375,-1000.0,967.7734375
1578460529.540378,-1000.0,-1000.0,768.5546875,-1000.0,967.7734375
1578460529.540378,-1000.0,-1000.0,635.25390625,-1000.0,967.7734375
1578460529.540378,-1000.0,-1000.0,522.94921875,-1000.0,967.7734375
1578460529.540378,-1000.0,-1000.0,412.59765625,-1000.0,967.7734375
1578460529.540378,-1000.0,-1000.0,311.5234375,-1000.0,967.7734375
1578460529.540378,-1000.0,-1000.0,219.23828125,-1000.0,967.7734375
1578460529.540378,-1000.0,-1000.0,135.25390625,-1000.0,968.26171875
1578460529.540378,-1000.0,-1000.0,56.15234375,-1000.0,967.7734375
1578460529.540378,-1000.0,-1000.0,-19.04296875,-1000.0,968.26171875
1578460529.540378,-1000.0,-1000.0,-85.44921875,-1000.0,967.7734375
1578460529.587253,-1000.0,-1000.0,-145.99609375,-1000.0,967.7734375
1578460529.587253,-1000.0,-1000.0,-205.078125,-1000.0,967.7734375
1578460529.587253,-1000.0,-1000.0,-261.71875,-1000.0,967.7734375
1578460529.587253,-1000.0,-1000.0,-316.89453125,-1000.0,967.7734375
1578460529.587253,-1000.0,-1000.0,-366.2109375,-1000.0,967.7734375
1578460529.587253,-1000.0,-1000.0,-409.66796875,-1000.0,967.7734375
1578460529.587253,-1000.0,-1000.0,-451.171875,-1000.0,968.26171875
1578460529.587253,-1000.0,-1000.0,-489.74609375,-1000.0,967.7734375
1578460529.587253,-1000.0,-1000.0,-524.90234375,-1000.0,967.7734375
1578460529.587253,-1000.0,-1000.0,-557.12890625,-1000.0,968.26171875
1578460529.587253,-1000.0,-1000.0,-586.9140625,-1000.0,968.26171875
1578460529.587253,-1000.0,-1000.0,-615.72265625,-1000.0,967.7734375
1578460529.634128,-1000.0,-1000.0,-641.11328125,-1000.0,967.7734375
1578460529.634128,-1000.0,-1000.0,-664.55078125,-1000.0,967.7734375
1578460529.634128,-1000.0,-1000.0,-686.5234375,-1000.0,968.26171875
1578460529.634128,-1000.0,-1000.0,-707.03125,-1000.0,967.7734375
1578460529.634128,-1000.0,-1000.0,-725.5859375,-1000.0,967.7734375
1578460529.634128,-1000.0,-1000.0,-743.65234375,-1000.0,968.26171875
1578460529.634128,-1000.0,-1000.0,-760.7421875,-1000.0,968.26171875
1578460529.634128,-1000.0,-1000.0,-775.87890625,-1000.0,967.7734375
1578460529.634128,-1000.0,-1000.0,-789.55078125,-1000.0,967.7734375
1578460529.634128,-1000.0,-1000.0,-801.7578125,-1000.0,967.7734375
1578460529.634128,-1000.0,-1000.0,-814.453125,-1000.0,967.7734375
1578460529.634128,-1000.0,-1000.0,-825.68359375,-1000.0,967.7734375
1578460529.681003,-1000.0,-1000.0,-835.9375,-1000.0,967.7734375
1578460529.681003,-1000.0,-1000.0,-845.703125,-1000.0,967.7734375
1578460529.681003,-1000.0,-1000.0,-854.98046875,-1000.0,967.7734375
1578460529.681003,-1000.0,-1000.0,-863.28125,-1000.0,967.7734375
1578460529.681003,-1000.0,-1000.0,-871.09375,-1000.0,967.7734375
1578460529.681003,-1000.0,-1000.0,-877.9296875,-1000.0,968.26171875
1578460529.681003,-1000.0,-1000.0,-884.765625,-1000.0,967.7734375
1578460529.681003,-1000.0,-1000.0,-892.08984375,-1000.0,967.7734375
1578460529.681003,-1000.0,-1000.0,-897.4609375,-1000.0,967.7734375
1578460529.681003,-1000.0,-1000.0,-901.85546875,-1000.0,967.7734375
1578460529.681003,-1000.0,-1000.0,-906.73828125,-1000.0,968.26171875
1578460529.681003,-1000.0,-1000.0,-912.109375,-1000.0,968.26171875
1578460529.727878,-1000.0,-1000.0,-916.50390625,-1000.0,967.7734375
1578460529.727878,-1000.0,-1000.0,-920.41015625,-1000.0,967.7734375
1578460529.727878,-1000.0,-1000.0,-924.31640625,-1000.0,967.7734375
1578460529.727878,-1000.0,-1000.0,-927.24609375,-1000.0,968.26171875
1578460529.727878,-1000.0,-1000.0,-931.15234375,-1000.0,967.7734375
1578460529.727878,-1000.0,-1000.0,-935.05859375,-1000.0,967.7734375
1578460529.727878,-1000.0,-1000.0,-937.5,-1000.0,967.7734375
1578460529.727878,-1000.0,-1000.0,-940.4296875,-1000.0,968.26171875
1578460529.727878,-1000.0,-1000.0,-943.359375,-1000.0,967.7734375
1578460529.727878,-1000.0,-1000.0,-945.3125,-1000.0,967.7734375
1578460529.727878,-1000.0,-1000.0,-947.75390625,-1000.0,967.7734375
1578460529.727878,-1000.0,-1000.0,-950.1953125,-1000.0,967.7734375
1578460529.774753,-1000.0,-1000.0,-951.66015625,-1000.0,967.7734375
1578460529.774753,-1000.0,-1000.0,-954.1015625,-1000.0,968.26171875
1578460529.774753,-1000.0,-1000.0,-956.0546875,-1000.0,968.26171875
1578460529.774753,-1000.0,-1000.0,-957.51953125,-1000.0,967.7734375
1578460529.774753,-1000.0,-1000.0,-959.47265625,-1000.0,968.26171875
1578460529.774753,-1000.0,-1000.0,-961.9140625,-1000.0,967.7734375
1578460529.774753,-1000.0,-1000.0,-963.37890625,-1000.0,968.26171875
1578460529.774753,-1000.0,-1000.0,-964.35546875,-1000.0,967.7734375
1578460529.774753,-1000.0,-1000.0,-965.8203125,-1000.0,967.7734375
1578460529.774753,-1000.0,-1000.0,-967.28515625,-1000.0,967.7734375
1578460529.774753,-1000.0,-1000.0,-968.26171875,-1000.0,967.7734375
1578460529.774753,-1000.0,-1000.0,-968.75,-1000.0,967.7734375
1578460529.821628,-1000.0,-1000.0,-969.7265625,-1000.0,968.26171875
1578460529.821628,-1000.0,-1000.0,-971.19140625,-1000.0,967.7734375
1578460529.821628,-1000.0,-1000.0,-971.6796875,-1000.0,967.7734375
1578460529.821628,-1000.0,-1000.0,-972.65625,-1000.0,967.7734375
1578460529.821628,-1000.0,-1000.0,-973.6328125,-1000.0,967.7734375
1578460529.821628,-1000.0,-1000.0,-975.09765625,-1000.0,968.26171875
1578460529.821628,-1000.0,-1000.0,-976.5625,-1000.0,967.7734375
1578460529.821628,-1000.0,-1000.0,-976.5625,-1000.0,967.7734375
1578460529.821628,-1000.0,-1000.0,-977.5390625,-1000.0,967.7734375
1578460529.821628,-1000.0,-1000.0,-978.515625,-1000.0,968.26171875
1578460529.821628,-1000.0,-1000.0,-979.00390625,-1000.0,967.7734375
1578460529.821628,-1000.0,-1000.0,-979.00390625,-1000.0,967.7734375
1578460529.868503,-1000.0,-1000.0,-979.4921875,-1000.0,967.7734375
1578460529.868503,-1000.0,-1000.0,-980.46875,-1000.0,967.7734375
1578460529.868503,-1000.0,-1000.0,-980.95703125,-1000.0,967.7734375
1578460529.868503,-1000.0,-1000.0,-980.95703125,-1000.0,967.7734375
1578460529.868503,-1000.0,-1000.0,-980.95703125,-1000.0,967.7734375
1578460529.868503,-1000.0,-1000.0,-982.421875,-1000.0,967.7734375
1578460529.868503,-1000.0,-1000.0,-983.88671875,-1000.0,968.26171875
1578460529.868503,-1000.0,-1000.0,-984.375,-1000.0,968.26171875
1578460529.868503,-1000.0,-1000.0,-984.375,-1000.0,967.7734375
1578460529.868503,-1000.0,-1000.0,-984.86328125,-1000.0,968.26171875
1578460529.868503,-1000.0,-1000.0,-984.86328125,-1000.0,968.26171875
1578460529.868503,-1000.0,-1000.0,-984.86328125,-1000.0,967.7734375
1578460529.915378,-1000.0,-1000.0,-985.3515625,-1000.0,967.7734375
1578460529.915378,-1000.0,-1000.0,-985.3515625,-1000.0,967.7734375
1578460529.915378,-1000.0,-1000.0,-985.83984375,-1000.0,968.26171875
1578460529.915378,-1000.0,-1000.0,-987.79296875,-1000.0,967.7734375
1578460529.915378,-1000.0,-1000.0,-987.79296875,-1000.0,967.7734375
1578460529.915378,-1000.0,-1000.0,-987.79296875,-1000.0,968.26171875
1578460529.915378,-1000.0,-1000.0,-988.28125,-1000.0,968.26171875
1578460529.915378,-1000.0,-1000.0,-988.28125,-1000.0,968.26171875
1578460529.915378,-1000.0,-1000.0,-989.2578125,-1000.0,967.7734375
1578460529.915378,-1000.0,-1000.0,-990.234375,-1000.0,967.7734375
1578460529.915378,-1000.0,-1000.0,-989.2578125,-1000.0,967.7734375
1578460529.915378,-1000.0,-1000.0,-988.76953125,-1000.0,967.7734375
1578460529.962253,-1000.0,-1000.0,-989.74609375,-1000.0,968.26171875
1578460529.962253,-1000.0,-1000.0,-989.74609375,-1000.0,967.7734375
1578460529.962253,-1000.0,-1000.0,-989.74609375,-1000.0,967.7734375
1578460529.962253,-1000.0,-1000.0,-990.72265625,-1000.0,968.26171875
1578460529.962253,-1000.0,-1000.0,-991.2109375,-1000.0,968.26171875
1578460529.962253,-1000.0,-1000.0,-990.72265625,-1000.0,967.7734375
1578460529.962253,-1000.0,-1000.0,-990.72265625,-1000.0,967.7734375
1578460529.962253,-1000.0,-1000.0,-991.69921875,-1000.0,968.26171875
1578460529.962253,-1000.0,-1000.0,-992.1875,-1000.0,968.26171875
1578460529.962253,-1000.0,-1000.0,-991.69921875,-1000.0,967.7734375
1578460529.962253,-1000.0,-1000.0,-991.69921875,-1000.0,967.7734375
1578460529.962253,-1000.0,-1000.0,-991.69921875,-1000.0,967.7734375
1578460530.009128,-1000.0,-1000.0,-991.69921875,-1000.0,967.7734375
1578460530.009128,-1000.0,-1000.0,-992.1875,-1000.0,967.7734375
1578460530.009128,-1000.0,-1000.0,-992.1875,-1000.0,967.7734375
1578460530.009128,-1000.0,-1000.0,-992.67578125,-1000.0,967.7734375
1578460530.009128,-1000.0,-1000.0,-993.1640625,-1000.0,968.26171875
1578460530.009128,-1000.0,-1000.0,-993.65234375,-1000.0,968.26171875
1578460530.009128,-1000.0,-1000.0,-993.1640625,-1000.0,967.7734375
1578460530.009128,-1000.0,-1000.0,-994.140625,-1000.0,967.7734375
1578460530.009128,-1000.0,-1000.0,-995.1171875,-1000.0,967.7734375
1578460530.009128,-1000.0,-1000.0,-994.62890625,-1000.0,968.26171875
1578460530.009128,-1000.0,-1000.0,-994.140625,-1000.0,967.7734375
1578460530.009128,-1000.0,-1000.0,-994.140625,-1000.0,967.7734375
1578460530.056003,-1000.0,-1000.0,-994.62890625,-1000.0,968.26171875
1578460530.056003,-1000.0,-1000.0,-994.62890625,-1000.0,967.7734375
1578460530.056003,-1000.0,-1000.0,-995.1171875,-1000.0,967.7734375
1578460530.056003,-1000.0,-1000.0,-994.62890625,-1000.0,968.26171875
1578460530.056003,-1000.0,-1000.0,-995.1171875,-1000.0,967.7734375
1578460530.056003,-1000.0,-1000.0,-996.09375,-1000.0,967.7734375
1578460530.056003,-1000.0,-1000.0,-995.60546875,-1000.0,968.26171875
1578460530.056003,-1000.0,-1000.0,-996.09375,-1000.0,967.7734375
1578460530.056003,-1000.0,-1000.0,-996.58203125,-1000.0,968.26171875
1578460530.056003,-1000.0,-1000.0,-995.60546875,-1000.0,967.7734375
1578460530.056003,-1000.0,-1000.0,-996.09375,-1000.0,967.7734375
1578460530.056003,-1000.0,-1000.0,-997.0703125,-1000.0,967.7734375
1578460530.102878,-1000.0,-1000.0,-997.55859375,-1000.0,968.26171875
1578460530.102878,-1000.0,-1000.0,-997.0703125,-1000.0,968.26171875
1578460530.102878,-1000.0,-1000.0,-997.0703125,-1000.0,968.26171875
1578460530.102878,-1000.0,-1000.0,-996.58203125,-1000.0,967.7734375
1578460530.102878,-1000.0,-1000.0,-996.09375,-1000.0,967.7734375
1578460530.102878,-1000.0,-1000.0,-997.55859375,-1000.0,967.7734375
1578460530.102878,-1000.0,-1000.0,-998.53515625,-1000.0,967.7734375
1578460530.102878,-1000.0,-1000.0,-999.0234375,-1000.0,967.7734375
1578460530.102878,-1000.0,-1000.0,-998.046875,-1000.0,968.26171875
1578460530.102878,-1000.0,-1000.0,-998.046875,-1000.0,967.7734375
1578460530.102878,-1000.0,-1000.0,-998.046875,-1000.0,968.26171875
1578460530.102878,-1000.0,-1000.0,-998.53515625,-1000.0,967.7734375
1578460530.149753,-1000.0,-1000.0,-998.53515625,-1000.0,967.7734375
1578460530.149753,-1000.0,-1000.0,-998.53515625,-1000.0,967.7734375
1578460530.149753,-1000.0,-1000.0,-999.0234375,-1000.0,967.7734375
1578460530.149753,-1000.0,-1000.0,-999.0234375,-1000.0,967.7734375
1578460530.149753,-1000.0,-1000.0,-999.0234375,-1000.0,967.7734375
1578460530.149753,-1000.0,-1000.0,-999.0234375,-1000.0,967.7734375
1578460530.149753,-1000.0,-1000.0,-1000.0,-1000.0,967.7734375
1578460530.149753,-1000.0,-1000.0,-999.51171875,-1000.0,967.7734375
1578460530.149753,-1000.0,-1000.0,-998.53515625,-1000.0,967.7734375
1578460530.149753,-1000.0,-1000.0,-998.53515625,-1000.0,967.7734375
1578460530.149753,-1000.0,-1000.0,-998.53515625,-1000.0,967.7734375
1578460530.149753,-1000.0,-1000.0,-998.53515625,-1000.0,967.7734375
1578460530.196628,-1000.0,-1000.0,-999.0234375,-1000.0,967.7734375
1578460530.196628,-1000.0,-1000.0,-999.0234375,-1000.0,967.7734375
1578460530.196628,-1000.0,-1000.0,-999.0234375,-1000.0,967.7734375
1578460530.196628,-1000.0,-1000.0,-999.51171875,-1000.0,967.7734375
1578460530.196628,-1000.0,-1000.0,-999.51171875,-1000.0,968.26171875
1578460530.196628,-1000.0,-1000.0,-1000.0,-1000.0,968.26171875
1578460530.196628,-1000.0,-1000.0,-1000.0,-1000.0,968.26171875
1578460530.196628,-1000.0,-1000.0,-1000.0,-1000.0,968.26171875
1578460530.196628,-1000.0,-1000.0,-1000.0,-1000.0,967.7734375
1578460530.196628,-1000.0,-1000.0,-1000.0,-1000.0,967.7734375
1578460530.196628,-1000.0,-1000.0,-1000.0,-1000.0,967.7734375
1578460530.196628,-1000.0,-1000.0,-999.51171875,-1000.0,968.26171875
1578460530.243503,-1000.0,-1000.0,-1000.0,-1000.0,968.26171875
1578460530.243503,-1000.0,-1000.0,-1000.0,-1000.0,968.26171875
1578460530.243503,-1000.0,-1000.0,-1000.0,-1000.0,967.7734375
1578460530.243503,-1000.0,-1000.0,-1000.0,-1000.0,967.7734375
1578460530.243503,-1000.0,-1000.0,-1000.0,-1000.0,968.26171875
1578460530.243503,-1000.0,-1000.0,-1000.0,-1000.0,967.7734375
1578460530.243503,-1000.0,-1000.0,-1000.0,-1000.0,968.26171875
1578460530.243503,-1000.0,-1000.0,-1000.0,-1000.0,968.26171875
1578460530.243503,-1000.0,-1000.0,-1000.0,-1000.0,967.7734375
1578460530.243503,-1000.0,-1000.0,-1000.0,-1000.0,967.7734375
1578460530.243503,-1000.0,-1000.0,-1000.0,-1000.0,967.7734375
1578460530.243503,-1000.0,-1000.0,-1000.0,-1000.0,967.7734375
1578460530.290378,-1000.0,-1000.0,-1000.0,-1000.0,967.7734375
1578460530.290378,-1000.0,-1000.0,-1000.0,-1000.0,967.7734375
1578460530.290378,-1000.0,-1000.0,-1000.0,-1000.0,967.7734375
1578460530.290378,-1000.0,-1000.0,-1000.0,-1000.0,967.7734375
1578460530.290378,-1000.0,-1000.0,-1000.0,-1000.0,967.7734375
1578460530.290378,-1000.0,-1000.0,-1000.0,-1000.0,967.7734375
1578460530.290378,-1000.0,-1000.0,-1000.0,-1000.0,967.7734375
1578460530.290378,-1000.0,-1000.0,-1000.0,-1000.0,968.26171875
1578460530.290378,-1000.0,-1000.0,-1000.0,-1000.0,968.26171875
1578460530.290378,-1000.0,-1000.0,-1000.0,-1000.0,967.7734375
1578460530.290378,-1000.0,-1000.0,-1000.0,-1000.0,967.7734375
1578460530.290378,-1000.0,-1000.0,-1000.0,-1000.0,967.7734375
1578460530.337253,-1000.0,-1000.0,-1000.0,-1000.0,967.7734375
1578460530.337253,-1000.0,-1000.0,-1000.0,-1000.0,967.7734375
1578460530.337253,-1000.0,-1000.0,-1000.0,-1000.0,967.7734375
1578460530.337253,-1000.0,-1000.0,-1000.0,-1000.0,967.7734375
1578460530.337253,-1000.0,-1000.0,-1000.0,-1000.0,967.7734375
1578460530.337253,-1000.0,-1000.0,-1000.0,-1000.0,967.7734375
1578460530.337253,-1000.0,-1000.0,-1000.0,-1000.0,967.7734375
1578460530.337253,-1000.0,-1000.0,-1000.0,-1000.0,967.7734375
1578460530.337253,-1000.0,-1000.0,-1000.0,-1000.0,968.26171875
1578460530.337253,-1000.0,-1000.0,-1000.0,-1000.0,967.7734375
1578460530.337253,-1000.0,-1000.0,-1000.0,-1000.0,967.7734375
1578460530.337253,-1000.0,-1000.0,-1000.0,-1000.0,967.7734375
1578460530.384128,-1000.0,-1000.0,-1000.0,-1000.0,967.7734375
1578460530.384128,-1000.0,-1000.0,-1000.0,-1000.0,967.7734375
1578460530.384128,-1000.0,-1000.0,-1000.0,-1000.0,968.26171875
1578460530.384128,-1000.0,-1000.0,-1000.0,-1000.0,967.7734375
1578460530.384128,-1000.0,-1000.0,-1000.0,-1000.0,967.7734375
1578460530.384128,-1000.0,-1000.0,-1000.0,-1000.0,967.7734375
1578460530.384128,-1000.0,-1000.0,-1000.0,-1000.0,968.26171875
1578460530.384128,-1000.0,-1000.0,-1000.0,-1000.0,967.7734375
1578460530.384128,-1000.0,-1000.0,-1000.0,-1000.0,967.7734375
1578460530.384128,-1000.0,-1000.0,-1000.0,-1000.0,967.7734375
1578460530.384128,-1000.0,-1000.0,-1000.0,-1000.0,967.7734375
1578460530.384128,-1000.0,-1000.0,-1000.0,-1000.0,967.7734375
1578460530.431003,-1000.0,-1000.0,-1000.0,-1000.0,968.26171875
1578460530.431003,-1000.0,-1000.0,-1000.0,-1000.0,968.26171875
1578460530.431003,-1000.0,-1000.0,-1000.0,-1000.0,967.7734375
1578460530.431003,-1000.0,-1000.0,-1000.0,-1000.0,967.7734375
1578460530.431003,-1000.0,-1000.0,-1000.0,-1000.0,967.7734375
1578460530.431003,-1000.0,-1000.0,-1000.0,-1000.0,967.7734375
1578460530.431003,-1000.0,-1000.0,-1000.0,-1000.0,968.26171875
1578460530.431003,-1000.0,-1000.0,-1000.0,-1000.0,968.26171875
1578460530.431003,-1000.0,-1000.0,-1000.0,-1000.0,968.26171875
1578460530.431003,-1000.0,-1000.0,-1000.0,-1000.0,967.7734375
1578460530.431003,-1000.0,-1000.0,-1000.0,-1000.0,967.7734375
1578460530.431003,-1000.0,-1000.0,-1000.0,-1000.0,967.7734375
1578460530.477878,-1000.0,-1000.0,-1000.0,-1000.0,967.7734375
1578460530.477878,-1000.0,-1000.0,-1000.0,-1000.0,967.7734375
1578460530.477878,-1000.0,-1000.0,-1000.0,-1000.0,967.7734375
1578460530.477878,-1000.0,-1000.0,-1000.0,-1000.0,967.7734375
1578460530.477878,-1000.0,-1000.0,-1000.0,-1000.0,967.7734375
1578460530.477878,-1000.0,-1000.0,-1000.0,-1000.0,968.26171875
1578460530.477878,-1000.0,-1000.0,-1000.0,-1000.0,967.7734375
1578460530.477878,-1000.0,-1000.0,-1000.0,-1000.0,968.26171875
1578460530.477878,-1000.0,-1000.0,-1000.0,-1000.0,968.26171875
1578460530.477878,-1000.0,-1000.0,-1000.0,-1000.0,967.7734375
1578460530.477878,-1000.0,-1000.0,-1000.0,-1000.0,967.7734375
1578460530.477878,-1000.0,-1000.0,-1000.0,-1000.0,968.26171875
1578460530.524753,-1000.0,-1000.0,-1000.0,-1000.0,967.7734375
1578460530.524753,-1000.0,-1000.0,-1000.0,-1000.0,967.7734375
1578460530.524753,-1000.0,-1000.0,-1000.0,-1000.0,967.7734375
1578460530.524753,-1000.0,-1000.0,-1000.0,-1000.0,968.26171875
1578460530.524753,-1000.0,-1000.0,-1000.0,-1000.0,967.7734375
1578460530.524753,-1000.0,-1000.0,-1000.0,-1000.0,967.7734375
1578460530.524753,-1000.0,-1000.0,-1000.0,-1000.0,967.7734375
1578460530.524753,-1000.0,-1000.0,-1000.0,-1000.0,967.7734375
1578460530.524753,-1000.0,-1000.0,-1000.0,-1000.0,968.26171875
1578460530.524753,-1000.0,-1000.0,-1000.0,-1000.0,968.26171875
1578460530.524753,-1000.0,-1000.0,-1000.0,-1000.0,967.7734375
1578460530.524753,-1000.0,-1000.0,-1000.0,-1000.0,967.7734375
1578460530.571628,-1000.0,-1000.0,-1000.0,-1000.0,967.7734375
1578460530.571628,-1000.0,-1000.0,-1000.0,-1000.0,967.7734375
1578460530.571628,-1000.0,-1000.0,-1000.0,-1000.0,967.7734375
1578460530.571628,-1000.0,-1000.0,-1000.0,-1000.0,968.26171875
1578460530.571628,-1000.0,-1000.0,-1000.0,-1000.0,968.26171875
1578460530.571628,-1000.0,-1000.0,-1000.0,-1000.0,967.7734375
1578460530.571628,-1000.0,-1000.0,-1000.0,-1000.0,967.7734375
1578460530.571628,-1000.0,-1000.0,-1000.0,-1000.0,967.7734375
1578460530.571628,-1000.0,-1000.0,-1000.0,-1000.0,967.7734375
1578460530.571628,-1000.0,-1000.0,-1000.0,-1000.0,967.7734375
1578460530.571628,-1000.0,-1000.0,-1000.0,-1000.0,968.26171875
1578460530.571628,-1000.0,-1000.0,-1000.0,-1000.0,968.26171875
1578460530.618503,-1000.0,-1000.0,-1000.0,-1000.0,968.26171875
1578460530.618503,-1000.0,-1000.0,-1000.0,-1000.0,967.7734375
1578460530.618503,-1000.0,-1000.0,-1000.0,-1000.0,967.7734375
1578460530.618503,-1000.0,-1000.0,-1000.0,-1000.0,967.7734375
1578460530.618503,-1000.0,-1000.0,-1000.0,-1000.0,967.7734375
1578460530.618503,-1000.0,-1000.0,-1000.0,-1000.0,968.26171875
1578460530.618503,-1000.0,-1000.0,-1000.0,-1000.0,967.7734375
1578460530.618503,-1000.0,-1000.0,-1000.0,-1000.0,967.7734375
1578460530.618503,-1000.0,-1000.0,-1000.0,-1000.0,967.7734375
1578460530.618503,-1000.0,-1000.0,-1000.0,-1000.0,967.7734375
1578460530.618503,-1000.0,-1000.0,-1000.0,-1000.0,967.7734375
1578460530.618503,-1000.0,-1000.0,-1000.0,-1000.0,967.7734375
1578460530.665378,-1000.0,-1000.0,-1000.0,-1000.0,968.26171875
1578460530.665378,-1000.0,-1000.0,-1000.0,-1000.0,967.7734375
1578460530.665378,-1000.0,-1000.0,-1000.0,-1000.0,967.7734375
1578460530.665378,-1000.0,-1000.0,-1000.0,-1000.0,967.7734375
1578460530.665378,-1000.0,-1000.0,-1000.0,-1000.0,967.7734375
1578460530.665378,-1000.0,-1000.0,-1000.0,-1000.0,967.7734375
1578460530.665378,-1000.0,-1000.0,-1000.0,-1000.0,967.7734375
1578460530.665378,-1000.0,-1000.0,-1000.0,-1000.0,968.26171875
1578460530.665378,-1000.0,-1000.0,-1000.0,-1000.0,967.7734375
1578460530.665378,-1000.0,-1000.0,-1000.0,-1000.0,967.7734375
1578460530.665378,-1000.0,-1000.0,-1000.0,-1000.0,967.7734375
1578460530.665378,-1000.0,-1000.0,-1000.0,-1000.0,967.7734375
1578460530.712253,-1000.0,-1000.0,-1000.0,-1000.0,967.7734375
1578460530.712253,-1000.0,-1000.0,-1000.0,-1000.0,967.7734375
1578460530.712253,-1000.0,-1000.0,-1000.0,-1000.0,967.7734375
1578460530.712253,-1000.0,-1000.0,-1000.0,-1000.0,968.26171875
1578460530.712253,-1000.0,-1000.0,-1000.0,-1000.0,967.7734375
1578460530.712253,-1000.0,-1000.0,-1000.0,-1000.0,967.7734375
1578460530.712253,-1000.0,-1000.0,-1000.0,-1000.0,967.7734375
1578460530.712253,-1000.0,-1000.0,-1000.0,-1000.0,967.7734375
1578460530.712253,-1000.0,-1000.0,-1000.0,-1000.0,967.7734375
1578460530.712253,-1000.0,-1000.0,-1000.0,-1000.0,967.7734375
1578460530.712253,-1000.0,-1000.0,-1000.0,-1000.0,968.26171875
1578460530.712253,-1000.0,-1000.0,-1000.0,-1000.0,967.7734375
1578460530.759128,-1000.0,-1000.0,-1000.0,-1000.0,967.7734375
1578460530.759128,-1000.0,-1000.0,-1000.0,-1000.0,967.7734375
1578460530.759128,-1000.0,-1000.0,-1000.0,-1000.0,967.7734375
1578460530.759128,-1000.0,-1000.0,-1000.0,-1000.0,967.7734375
1578460530.759128,-1000.0,-1000.0,-1000.0,-1000.0,967.7734375
1578460530.759128,-1000.0,-1000.0,-1000.0,-1000.0,967.7734375
1578460530.759128,-1000.0,-1000.0,-1000.0,-1000.0,968.26171875
1578460530.759128,-1000.0,-1000.0,-1000.0,-1000.0,967.7734375
1578460530.759128,-1000.0,-1000.0,-1000.0,-1000.0,967.7734375
1578460530.759128,-1000.0,-1000.0,-1000.0,-1000.0,967.7734375
1578460530.759128,-1000.0,-1000.0,-1000.0,-1000.0,968.26171875
1578460530.759128,-1000.0,-1000.0,-1000.0,-1000.0,968.26171875
1578460530.806003,-1000.0,-1000.0,-1000.0,-1000.0,967.7734375
1578460530.806003,-1000.0,-1000.0,-1000.0,-1000.0,968.26171875
1578460530.806003,-1000.0,-1000.0,-1000.0,-1000.0,968.26171875
1578460530.806003,-1000.0,-1000.0,-1000.0,-1000.0,968.26171875
1578460530.806003,-1000.0,-1000.0,-1000.0,-1000.0,967.7734375
1578460530.806003,-1000.0,-1000.0,-1000.0,-1000.0,967.7734375
1578460530.806003,-1000.0,-1000.0,-1000.0,-1000.0,968.26171875
1578460530.806003,-1000.0,-1000.0,-1000.0,-1000.0,967.7734375
1578460530.806003,-1000.0,-1000.0,-1000.0,-1000.0,967.7734375
1578460530.806003,-1000.0,-1000.0,-1000.0,-1000.0,967.7734375
1578460530.806003,-1000.0,-1000.0,-1000.0,-1000.0,967.7734375
1578460530.806003,-1000.0,-1000.0,-1000.0,-1000.0,968.26171875
1578460530.852878,-1000.0,-1000.0,-1000.0,-1000.0,967.7734375
1578460530.852878,-1000.0,-1000.0,-1000.0,-1000.0,968.26171875
1578460530.852878,-1000.0,-1000.0,-1000.0,-1000.0,968.26171875
1578460530.852878,-1000.0,-1000.0,-1000.0,-1000.0,968.26171875
1578460530.852878,-1000.0,-1000.0,-1000.0,-1000.0,967.7734375
1578460530.852878,-1000.0,-1000.0,-1000.0,-1000.0,967.7734375
1578460530.852878,-1000.0,-1000.0,-1000.0,-1000.0,967.7734375
1578460530.852878,-1000.0,-1000.0,-1000.0,-1000.0,967.7734375
1578460530.852878,-1000.0,-1000.0,-1000.0,-1000.0,967.7734375
1578460530.852878,-1000.0,-1000.0,-1000.0,-1000.0,967.7734375
1578460530.852878,-1000.0,-1000.0,-1000.0,-1000.0,967.7734375
1578460530.852878,-1000.0,-1000.0,-1000.0,-1000.0,968.26171875
1578460530.899753,-1000.0,-1000.0,-1000.0,-1000.0,967.7734375
1578460530.899753,-1000.0,-1000.0,-1000.0,-1000.0,967.7734375
1578460530.899753,-1000.0,-1000.0,-1000.0,-1000.0,967.7734375
1578460530.899753,-1000.0,-1000.0,-1000.0,-1000.0,967.7734375
1578460530.899753,-1000.0,-1000.0,-1000.0,-1000.0,968.26171875
1578460530.899753,-1000.0,-1000.0,-1000.0,-1000.0,967.7734375
1578460530.899753,-1000.0,-1000.0,-1000.0,-1000.0,968.26171875
1578460530.899753,-1000.0,-1000.0,-1000.0,-1000.0,967.7734375
1578460530.899753,-1000.0,-1000.0,-1000.0,-1000.0,967.7734375
1578460530.899753,-1000.0,-1000.0,-1000.0,-1000.0,967.7734375
1578460530.899753,-1000.0,-1000.0,-1000.0,-1000.0,967.7734375
1578460530.899753,-1000.0,-1000.0,-1000.0,-1000.0,967.7734375
1578460530.946628,-1000.0,-1000.0,-1000.0,-1000.0,967.7734375
1578460530.946628,-1000.0,-1000.0,-1000.0,-1000.0,967.7734375
1578460530.946628,-1000.0,-1000.0,-1000.0,-1000.0,968.26171875
1578460530.946628,-1000.0,-1000.0,-1000.0,-1000.0,967.7734375
1578460530.946628,-1000.0,-1000.0,-1000.0,-1000.0,967.7734375
1578460530.946628,-1000.0,-1000.0,-1000.0,-1000.0,967.7734375
1578460530.946628,-1000.0,-1000.0,-1000.0,-1000.0,967.7734375
1578460530.946628,-1000.0,-1000.0,-1000.0,-1000.0,968.26171875
1578460530.946628,-1000.0,-1000.0,-1000.0,-1000.0,968.26171875
1578460530.946628,-1000.0,-1000.0,-1000.0,-1000.0,967.7734375
1578460530.946628,-1000.0,-1000.0,-1000.0,-1000.0,967.7734375
1578460530.946628,-1000.0,-1000.0,-1000.0,-1000.0,967.7734375
1578460530.993503,-1000.0,-1000.0,-1000.0,-1000.0,968.26171875
1578460530.993503,-1000.0,-1000.0,-1000.0,-1000.0,967.7734375
1578460530.993503,-1000.0,-1000.0,-1000.0,-1000.0,968.26171875
1578460530.993503,-1000.0,-1000.0,-1000.0,-1000.0,967.7734375
1578460530.993503,-1000.0,-1000.0,-1000.0,-1000.0,967.7734375
1578460530.993503,-1000.0,-1000.0,-1000.0,-1000.0,967.7734375
1578460530.993503,-1000.0,-1000.0,-1000.0,-1000.0,968.26171875
1578460530.993503,-1000.0,-1000.0,-1000.0,-1000.0,967.7734375
1578460530.993503,-1000.0,-1000.0,-1000.0,-1000.0,968.26171875
1578460530.993503,-1000.0,-1000.0,-1000.0,-1000.0,967.7734375
1578460530.993503,-1000.0,-1000.0,-1000.0,-1000.0,967.7734375
