timestamp,eeg1,eeg2,eeg3,eeg4,eeg5(aux)
1578459924.9264934,0.0,0.0,0.0,0.0,0.0
1578459924.9264934,0.0,-0.9765625,-0.9765625,0.0,0.0
1578459924.9264934,-32.2265625,-5.859375,-6.8359375,-32.2265625,0.0
1578459924.9264934,70.3125,2.44140625,4.39453125,70.3125,0.0
1578459924.9264934,-396.484375,-110.83984375,-118.65234375,-396.484375,0.0
1578459924.9264934,-1000.0,-399.90234375,-421.38671875,-1000.0,0.0
1578459924.9264934,-992.1875,-998.046875,-1000.0,-992.1875,0.0
1578459924.9264934,-986.81640625,-560.546875,-579.58984375,-986.81640625,0.0
1578459924.9264934,-1000.0,-149.4140625,-173.828125,-1000.0,0.0
1578459924.9264934,-1000.0,-888.671875,-899.90234375,-1000.0,0.0
1578459924.9264934,-1000.0,-1000.0,-1000.0,-1000.0,0.0
1578459924.9264934,-1000.0,-517.08984375,-523.92578125,-1000.0,0.0
1578459924.9733684,-1000.0,-229.98046875,-245.1171875,-1000.0,0.0
1578459924.9733684,-1000.0,-886.23046875,-895.5078125,-1000.0,-0.9765625
1578459924.9733684,-1000.0,-1000.0,-1000.0,-1000.0,-3.41796875
1578459924.9733684,-1000.0,-492.1875,-499.0234375,-1000.0,-4.8828125
1578459924.9733684,-1000.0,-469.7265625,-488.28125,-1000.0,-78.61328125
1578459924.9733684,-1000.0,-229.98046875,-259.27734375,-1000.0,-335.44921875
1578459924.9733684,-1000.0,34.1796875,7.8125,-1000.0,-998.53515625
1578459924.9733684,-1000.0,469.23828125,452.1484375,-1000.0,-519.53125
1578459924.9733684,-1000.0,427.734375,420.8984375,-1000.0,-57.12890625
1578459924.9733684,-1000.0,-977.05078125,-982.421875,-1000.0,-864.2578125
1578459924.9733684,-1000.0,-926.7578125,-931.640625,-1000.0,-1000.0
1578459924.9733684,-1000.0,-632.8125,-648.4375,-1000.0,-464.35546875
1578459925.0202434,-1000.0,-926.7578125,-932.12890625,-1000.0,-152.34375
1578459925.0202434,-1000.0,-1000.0,-1000.0,-1000.0,-874.51171875
1578459925.0202434,-1000.0,-793.9453125,-802.734375,-1000.0,-1000.0
1578459925.0202434,-1000.0,-516.6015625,-534.66796875,-1000.0,-437.5
1578459925.0202434,-1000.0,-853.02734375,-862.79296875,-1000.0,-398.92578125
1578459925.0202434,-1000.0,-534.66796875,-548.33984375,-1000.0,-164.0625
1578459925.0202434,-1000.0,-2.44140625,-32.71484375,-1000.0,176.7578125
1578459925.0202434,-1000.0,606.4453125,589.35546875,-1000.0,582.03125
1578459925.0202434,-1000.0,-194.82421875,-193.84765625,-1000.0,415.0390625
1578459925.0202434,-1000.0,-810.05859375,-829.58984375,-1000.0,-991.2109375
1578459925.0202434,-1000.0,-269.53125,-296.875,-1000.0,-915.0390625
1578459925.0202434,-1000.0,-625.48828125,-635.7421875,-1000.0,-601.07421875
1578459925.0671184,-1000.0,-1000.0,-1000.0,-1000.0,-913.57421875
1578459925.0671184,-1000.0,-1000.0,-1000.0,-1000.0,-1000.0
1578459925.0671184,-1000.0,-645.01953125,-653.3203125,-1000.0,-775.87890625
1578459925.0671184,-1000.0,-709.9609375,-713.8671875,-1000.0,-474.12109375
1578459925.0671184,-1000.0,-997.55859375,-999.51171875,-1000.0,-833.984375
1578459925.0671184,-1000.0,-604.98046875,-623.53515625,-1000.0,-528.3203125
1578459925.0671184,-1000.0,455.56640625,434.08203125,-1000.0,128.90625
1578459925.0671184,-1000.0,380.859375,376.953125,-1000.0,719.7265625
1578459925.0671184,-1000.0,-1000.0,-1000.0,-1000.0,-238.76953125
1578459925.0671184,-1000.0,-957.51953125,-960.9375,-1000.0,-778.80859375
1578459925.0671184,-1000.0,-753.41796875,-764.16015625,-1000.0,-190.4296875
1578459925.0671184,-1000.0,-776.85546875,-789.0625,-1000.0,-581.54296875
1578459925.1139934,-1000.0,-814.94140625,-820.80078125,-1000.0,-1000.0
1578459925.1139934,-1000.0,-884.27734375,-890.625,-1000.0,-1000.0
1578459925.1139934,-1000.0,-718.75,-730.95703125,-1000.0,-601.07421875
1578459925.1139934,-1000.0,-942.3828125,-943.359375,-1000.0,-672.36328125
1578459925.1139934,-1000.0,-1000.0,-1000.0,-1000.0,-1000.0
1578459925.1139934,-1000.0,-568.84765625,-585.9375,-1000.0,-571.77734375
1578459925.1139934,-1000.0,349.12109375,333.49609375,-1000.0,536.62109375
1578459925.1139934,-1000.0,-331.54296875,-329.1015625,-1000.0,378.90625
1578459925.1139934,-1000.0,-1000.0,-1000.0,-1000.0,-1000.0
1578459925.1139934,-1000.0,-672.8515625,-680.6640625,-1000.0,-945.80078125
1578459925.1139934,-1000.0,-470.21484375,-481.93359375,-1000.0,-750.0
1578459925.1139934,-1000.0,-866.69921875,-870.60546875,-1000.0,-735.83984375
1578459925.1608684,-1000.0,-1000.0,-1000.0,-1000.0,-771.484375
1578459925.1608684,-1000.0,-689.94140625,-694.82421875,-1000.0,-881.8359375
1578459925.1608684,-1000.0,-316.40625,-330.56640625,-1000.0,-696.77734375
1578459925.1608684,-1000.0,-698.2421875,-708.49609375,-1000.0,-930.17578125
1578459925.1608684,-1000.0,-1000.0,-1000.0,-1000.0,-1000.0
1578459925.1608684,-1000.0,-184.08203125,-196.77734375,-1000.0,-515.625
1578459925.1608684,-1000.0,228.02734375,212.890625,-1000.0,449.21875
1578459925.1608684,-1000.0,-643.5546875,-646.97265625,-1000.0,-340.8203125
1578459925.1608684,-1000.0,-1000.0,-1000.0,-1000.0,-1000.0
1578459925.1608684,-1000.0,-191.89453125,-205.078125,-1000.0,-625.9765625
1578459925.1608684,-1000.0,-268.06640625,-270.5078125,-1000.0,-404.78515625
1578459925.1608684,-1000.0,-1000.0,-1000.0,-1000.0,-869.62890625
1578459925.2077434,-1000.0,-861.328125,-867.1875,-1000.0,-1000.0
1578459925.2077434,-1000.0,-690.4296875,-702.1484375,-1000.0,-660.15625
1578459925.2077434,-1000.0,-936.5234375,-938.4765625,-1000.0,-286.62109375
1578459925.2077434,-1000.0,-1000.0,-1000.0,-1000.0,-659.1796875
1578459925.2077434,-1000.0,-706.54296875,-715.8203125,-1000.0,-1000.0
1578459925.2077434,-1000.0,35.64453125,16.11328125,-1000.0,-124.0234375
1578459925.2077434,-1000.0,-86.9140625,-107.91015625,-1000.0,444.82421875
1578459925.2077434,-1000.0,-387.6953125,-410.15625,-1000.0,-598.6328125
1578459925.2077434,-1000.0,-265.13671875,-291.9921875,-1000.0,-1000.0
1578459925.2077434,-1000.0,57.12890625,35.64453125,-1000.0,-53.22265625
1578459925.2077434,-1000.0,-648.4375,-649.90234375,-1000.0,-132.8125
1578459925.2077434,-1000.0,-1000.0,-1000.0,-1000.0,-1000.0
1578459925.2546184,-1000.0,-668.9453125,-675.78125,-1000.0,-850.5859375
1578459925.2546184,-1000.0,-694.82421875,-698.73046875,-1000.0,-656.73828125
1578459925.2546184,-1000.0,-1000.0,-1000.0,-1000.0,-924.8046875
1578459925.2546184,-1000.0,-1000.0,-1000.0,-1000.0,-1000.0
1578459925.2546184,-1000.0,-606.93359375,-615.72265625,-1000.0,-681.640625
1578459925.2546184,-1000.0,-66.89453125,-84.9609375,-1000.0,134.765625
1578459925.2546184,-1000.0,-215.8203125,-229.00390625,-1000.0,-27.34375
1578459925.2546184,-1000.0,-903.3203125,-908.69140625,-1000.0,-361.81640625
1578459925.2546184,-1000.0,-220.703125,-238.28125,-1000.0,-170.8984375
1578459925.2546184,-1000.0,132.32421875,116.2109375,-1000.0,260.7421875
1578459925.2546184,-1000.0,-1000.0,-1000.0,-1000.0,-579.1015625
1578459925.2546184,-1000.0,-938.96484375,-943.359375,-1000.0,-1000.0
1578459925.3014934,-1000.0,-696.2890625,-707.03125,-1000.0,-625.48828125
1578459925.3014934,-1000.0,-954.58984375,-955.56640625,-1000.0,-662.59765625
1578459925.3014934,-1000.0,-1000.0,-1000.0,-1000.0,-1000.0
1578459925.3014934,-1000.0,-835.44921875,-840.8203125,-1000.0,-1000.0
1578459925.3014934,-1000.0,-614.2578125,-630.37109375,-1000.0,-563.96484375
1578459925.3014934,-1000.0,-481.93359375,-504.39453125,-1000.0,2.9296875
1578459925.3014934,-1000.0,-284.66796875,-303.22265625,-1000.0,-175.78125
1578459925.3014934,-1000.0,-264.6484375,-290.0390625,-1000.0,-922.36328125
1578459925.3014934,-1000.0,138.671875,113.28125,-1000.0,-42.48046875
1578459925.3014934,-1000.0,-468.75,-469.7265625,-1000.0,376.46484375
1578459925.3014934,-1000.0,-1000.0,-1000.0,-1000.0,-1000.0
1578459925.3014934,-1000.0,-469.7265625,-483.88671875,-1000.0,-939.94140625
1578459925.3483684,-1000.0,-640.13671875,-645.01953125,-1000.0,-673.828125
1578459925.3483684,-1000.0,-1000.0,-1000.0,-1000.0,-951.171875
1578459925.3483684,-1000.0,-999.51171875,-1000.0,-1000.0,-1000.0
1578459925.3483684,-1000.0,-670.8984375,-675.78125,-1000.0,-822.75390625
1578459925.3483684,-1000.0,-736.328125,-742.1875,-1000.0,-566.89453125
1578459925.3483684,-1000.0,-574.70703125,-586.9140625,-1000.0,-463.37890625
1578459925.3483684,-1000.0,-312.5,-328.61328125,-1000.0,-236.328125
1578459925.3483684,-1000.0,74.21875,51.26953125,-1000.0,-141.11328125
1578459925.3483684,-1000.0,-32.71484375,-52.734375,-1000.0,404.78515625
1578459925.3483684,-1000.0,-1000.0,-1000.0,-1000.0,-328.61328125
1578459925.3483684,-1000.0,-938.96484375,-942.3828125,-1000.0,-1000.0
1578459925.3483684,-1000.0,-724.609375,-736.328125,-1000.0,-377.44140625
1578459925.3952434,-1000.0,-1000.0,-1000.0,-1000.0,-588.8671875
1578459925.3952434,-1000.0,-882.32421875,-886.71875,-1000.0,-1000.0
1578459925.3952434,-1000.0,-393.5546875,-415.52734375,-1000.0,-997.55859375
1578459925.3952434,-1000.0,-589.35546875,-603.02734375,-1000.0,-628.90625
1578459925.3952434,-1000.0,-988.76953125,-991.2109375,-1000.0,-704.1015625
1578459925.3952434,-1000.0,-539.0625,-552.24609375,-1000.0,-535.64453125
1578459925.3952434,-1000.0,-118.65234375,-143.06640625,-1000.0,-270.5078125
1578459925.3952434,-1000.0,153.80859375,133.30078125,-1000.0,297.36328125
1578459925.3952434,-1000.0,-450.68359375,-454.1015625,-1000.0,255.37109375
1578459925.3952434,-1000.0,-1000.0,-1000.0,-1000.0,-1000.0
1578459925.3952434,-1000.0,-676.26953125,-683.59375,-1000.0,-946.77734375
1578459925.3952434,-1000.0,-631.34765625,-636.71875,-1000.0,-696.2890625
1578459925.4421184,-1000.0,-1000.0,-1000.0,-1000.0,-1000.0
1578459925.4421184,-1000.0,-1000.0,-1000.0,-1000.0,-879.8828125
1578459925.4421184,-1000.0,-703.61328125,-709.47265625,-1000.0,-372.0703125
1578459925.4421184,-1000.0,-782.71484375,-786.1328125,-1000.0,-563.4765625
1578459925.4421184,-1000.0,-711.42578125,-724.609375,-1000.0,-969.23828125
1578459925.4421184,-1000.0,-303.7109375,-321.77734375,-1000.0,-534.66796875
1578459925.4421184,-1000.0,27.83203125,7.32421875,-1000.0,-80.078125
1578459925.4421184,-1000.0,-140.625,-157.71484375,-1000.0,431.15234375
1578459925.4421184,-1000.0,-1000.0,-1000.0,-1000.0,-279.78515625
1578459925.4421184,-1000.0,-952.1484375,-955.56640625,-1000.0,-1000.0
1578459925.4421184,-1000.0,-775.390625,-784.1796875,-1000.0,-637.6953125
1578459925.4421184,-1000.0,-960.9375,-962.40234375,-1000.0,-593.26171875
1578459925.4889934,-1000.0,-1000.0,-1000.0,-1000.0,-1000.0
1578459925.4889934,-1000.0,-813.4765625,-822.75390625,-1000.0,-1000.0
1578459925.4889934,-1000.0,-628.41796875,-642.08984375,-1000.0,-665.0390625
1578459925.4889934,-1000.0,-988.76953125,-987.3046875,-1000.0,-761.23046875
1578459925.4889934,-1000.0,-1000.0,-1000.0,-1000.0,-641.11328125
1578459925.4889934,-1000.0,-406.25,-419.921875,-1000.0,-254.39453125
1578459925.4889934,-1000.0,80.078125,64.94140625,-1000.0,263.18359375
1578459925.4889934,-1000.0,-270.5078125,-282.71484375,-1000.0,234.86328125
1578459925.4889934,-1000.0,-955.56640625,-958.0078125,-1000.0,-989.74609375
1578459925.4889934,-1000.0,-769.53125,-775.390625,-1000.0,-965.33203125
1578459925.4889934,-1000.0,-617.67578125,-624.0234375,-1000.0,-753.41796875
1578459925.4889934,-1000.0,-1000.0,-1000.0,-1000.0,-959.9609375
1578459925.5358684,-1000.0,-1000.0,-1000.0,-1000.0,-1000.0
1578459925.5358684,-1000.0,-714.84375,-719.23828125,-1000.0,-812.01171875
1578459925.5358684,-1000.0,-711.9140625,-714.84375,-1000.0,-607.421875
1578459925.5358684,-1000.0,-1000.0,-1000.0,-1000.0,-976.5625
1578459925.5358684,-1000.0,-1000.0,-1000.0,-1000.0,-1000.0
1578459925.5358684,-1000.0,-468.75,-479.98046875,-1000.0,-352.5390625
1578459925.5358684,-1000.0,-0.9765625,-13.18359375,-1000.0,333.984375
1578459925.5358684,-1000.0,-645.5078125,-647.4609375,-1000.0,-115.234375
1578459925.5358684,-1000.0,-1000.0,-1000.0,-1000.0,-990.72265625
1578459925.5358684,-1000.0,-304.19921875,-318.359375,-1000.0,-718.75
1578459925.5358684,-1000.0,-41.015625,-60.546875,-1000.0,-544.921875
1578459925.5358684,-1000.0,-800.78125,-810.05859375,-1000.0,-1000.0
1578459925.5827434,-1000.0,-914.55078125,-916.50390625,-1000.0,-1000.0
1578459925.5827434,-1000.0,-735.83984375,-749.51171875,-1000.0,-674.8046875
1578459925.5827434,-1000.0,-947.265625,-955.078125,-1000.0,-676.26953125
1578459925.5827434,-1000.0,-1000.0,-1000.0,-1000.0,-1000.0
1578459925.5827434,-1000.0,-800.78125,-808.59375,-1000.0,-1000.0
1578459925.5827434,-1000.0,-237.79296875,-252.9296875,-1000.0,-390.625
1578459925.5827434,-1000.0,-65.4296875,-80.56640625,-1000.0,96.19140625
1578459925.5827434,-1000.0,-670.41015625,-675.78125,-1000.0,-621.09375
1578459925.5827434,-1000.0,-858.88671875,-865.72265625,-1000.0,-1000.0
1578459925.5827434,-1000.0,-189.453125,-206.54296875,-1000.0,-115.234375
1578459925.5827434,-1000.0,-620.60546875,-623.53515625,-1000.0,271.484375
1578459925.5827434,-1000.0,-1000.0,-1000.0,-1000.0,-769.04296875
1578459925.6296184,-1000.0,-599.609375,-613.28125,-1000.0,-920.8984375
1578459925.6296184,-1000.0,-531.25,-541.015625,-1000.0,-710.44921875
1578459925.6296184,-1000.0,-1000.0,-1000.0,-1000.0,-941.40625
1578459925.6296184,-1000.0,-1000.0,-1000.0,-1000.0,-1000.0
1578459925.6296184,-1000.0,-619.62890625,-628.90625,-1000.0,-787.109375
1578459925.6296184,-1000.0,-212.890625,-227.5390625,-1000.0,-156.25
1578459925.6296184,-1000.0,-247.55859375,-262.6953125,-1000.0,41.9921875
1578459925.6296184,-1000.0,-641.11328125,-654.78515625,-1000.0,-646.484375
1578459925.6296184,-1000.0,-536.1328125,-557.12890625,-1000.0,-832.03125
1578459925.6296184,-1000.0,-326.171875,-346.6796875,-1000.0,70.80078125
1578459925.6296184,-1000.0,-998.53515625,-1000.0,-1000.0,-474.609375
1578459925.6296184,-1000.0,-929.6875,-933.59375,-1000.0,-1000.0
1578459925.6764934,-1000.0,-751.953125,-760.7421875,-1000.0,-525.390625
1578459925.6764934,-1000.0,-966.30859375,-967.28515625,-1000.0,-436.03515625
1578459925.6764934,-1000.0,-1000.0,-1000.0,-1000.0,-1000.0
1578459925.6764934,-1000.0,-713.37890625,-719.7265625,-1000.0,-1000.0
1578459925.6764934,-1000.0,-474.609375,-491.69921875,-1000.0,-567.87109375
1578459925.6764934,-1000.0,-469.7265625,-487.79296875,-1000.0,-157.71484375
1578459925.6764934,-1000.0,-320.3125,-335.44921875,-1000.0,-210.9375
1578459925.6764934,-1000.0,-265.13671875,-282.71484375,-1000.0,-657.2265625
1578459925.6764934,-1000.0,-388.671875,-404.78515625,-1000.0,-365.234375
1578459925.6764934,-1000.0,-899.90234375,-904.78515625,-1000.0,-31.25
1578459925.6764934,-1000.0,-1000.0,-1000.0,-1000.0,-977.5390625
1578459925.6764934,-1000.0,-740.72265625,-748.046875,-1000.0,-937.98828125
1578459925.7233684,-1000.0,-496.58203125,-512.20703125,-1000.0,-719.7265625
1578459925.7233684,-1000.0,-936.5234375,-939.453125,-1000.0,-957.03125
1578459925.7233684,-1000.0,-1000.0,-1000.0,-1000.0,-1000.0
1578459925.7233684,-1000.0,-757.32421875,-762.6953125,-1000.0,-668.45703125
1578459925.7233684,-1000.0,-824.21875,-828.61328125,-1000.0,-382.8125
1578459925.7233684,-1000.0,-720.703125,-729.4921875,-1000.0,-431.15234375
1578459925.7233684,-1000.0,-400.390625,-416.9921875,-1000.0,-281.25
1578459925.7233684,-1000.0,-243.65234375,-263.18359375,-1000.0,-184.5703125
1578459925.7233684,-1000.0,-493.65234375,-508.7890625,-1000.0,-211.42578125
1578459925.7233684,-1000.0,-1000.0,-1000.0,-1000.0,-818.359375
1578459925.7233684,-1000.0,-941.40625,-944.3359375,-1000.0,-1000.0
1578459925.7233684,-1000.0,-816.89453125,-825.1953125,-1000.0,-658.69140625
1578459925.7702434,-1000.0,-971.6796875,-972.65625,-1000.0,-313.4765625
1578459925.7702434,-1000.0,-1000.0,-1000.0,-1000.0,-912.59765625
1578459925.7702434,-1000.0,-856.4453125,-861.81640625,-1000.0,-1000.0
1578459925.7702434,-1000.0,-709.9609375,-718.26171875,-1000.0,-718.75
1578459925.7702434,-1000.0,-974.12109375,-976.07421875,-1000.0,-792.48046875
1578459925.7702434,-1000.0,-674.31640625,-684.08203125,-1000.0,-707.51953125
1578459925.7702434,-1000.0,-330.56640625,-346.6796875,-1000.0,-380.37109375
1578459925.7702434,-1000.0,-257.32421875,-272.4609375,-1000.0,33.69140625
1578459925.7702434,-1000.0,-634.765625,-644.04296875,-1000.0,-168.45703125
1578459925.7702434,-1000.0,-741.69921875,-754.8828125,-1000.0,-1000.0
1578459925.7702434,-1000.0,-456.0546875,-474.12109375,-1000.0,-949.70703125
1578459925.7702434,-1000.0,-793.9453125,-800.29296875,-1000.0,-799.31640625
1578459925.8171184,-1000.0,-1000.0,-1000.0,-1000.0,-969.7265625
1578459925.8171184,-1000.0,-1000.0,-1000.0,-1000.0,-1000.0
1578459925.8171184,-1000.0,-828.125,-832.03125,-1000.0,-847.16796875
1578459925.8171184,-1000.0,-867.1875,-868.1640625,-1000.0,-686.5234375
1578459925.8171184,-1000.0,-1000.0,-1000.0,-1000.0,-958.49609375
1578459925.8171184,-1000.0,-672.36328125,-682.6171875,-1000.0,-677.734375
1578459925.8171184,-1000.0,-290.52734375,-306.640625,-1000.0,-261.71875
1578459925.8171184,-1000.0,-561.03515625,-572.75390625,-1000.0,89.84375
1578459925.8171184,-1000.0,-1000.0,-1000.0,-1000.0,-408.203125
1578459925.8171184,-1000.0,-944.3359375,-947.265625,-1000.0,-776.85546875
1578459925.8171184,-1000.0,-881.8359375,-889.16015625,-1000.0,-445.80078125
1578459925.8171184,-1000.0,-846.19140625,-853.02734375,-1000.0,-765.13671875
1578459925.8639934,-1000.0,-835.9375,-841.30859375,-1000.0,-1000.0
1578459925.8639934,-1000.0,-924.31640625,-927.734375,-1000.0,-1000.0
1578459925.8639934,-1000.0,-830.078125,-836.9140625,-1000.0,-793.45703125
1578459925.8639934,-1000.0,-985.83984375,-985.3515625,-1000.0,-841.30859375
1578459925.8639934,-1000.0,-1000.0,-1000.0,-1000.0,-1000.0
1578459925.8639934,-1000.0,-597.65625,-608.3984375,-1000.0,-682.6171875
1578459925.8639934,-1000.0,-385.25390625,-395.01953125,-1000.0,-63.4765625
1578459925.8639934,-1000.0,-855.46875,-856.93359375,-1000.0,-251.953125
1578459925.8639934,-1000.0,-1000.0,-1000.0,-1000.0,-1000.0
1578459925.8639934,-1000.0,-800.29296875,-805.17578125,-1000.0,-954.1015625
1578459925.8639934,-1000.0,-755.37109375,-760.25390625,-1000.0,-875.0
1578459925.8639934,-1000.0,-1000.0,-1000.0,-1000.0,-846.19140625
1578459925.9108684,-1000.0,-1000.0,-1000.0,-1000.0,-825.1953125
1578459925.9108684,-1000.0,-791.50390625,-793.9453125,-1000.0,-924.31640625
1578459925.9108684,-1000.0,-483.88671875,-494.140625,-1000.0,-823.73046875
1578459925.9108684,-1000.0,-715.33203125,-723.6328125,-1000.0,-972.65625
1578459925.9108684,-1000.0,-1000.0,-1000.0,-1000.0,-1000.0
1578459925.9108684,-1000.0,-629.8828125,-640.13671875,-1000.0,-567.87109375
1578459925.9108684,-1000.0,-237.79296875,-250.9765625,-1000.0,-111.81640625
1578459925.9108684,-1000.0,-704.58984375,-707.51953125,-1000.0,-696.2890625
1578459925.9108684,-1000.0,-1000.0,-1000.0,-1000.0,-1000.0
1578459925.9108684,-1000.0,-557.6171875,-570.3125,-1000.0,-759.27734375
1578459925.9108684,-1000.0,-577.63671875,-584.47265625,-1000.0,-703.61328125
1578459925.9108684,-1000.0,-1000.0,-1000.0,-1000.0,-1000.0
1578459925.9577434,-1000.0,-898.92578125,-903.3203125,-1000.0,-1000.0
1578459925.9577434,-1000.0,-750.0,-757.8125,-1000.0,-766.11328125
1578459925.9577434,-1000.0,-962.890625,-964.35546875,-1000.0,-459.9609375
1578459925.9577434,-1000.0,-1000.0,-1000.0,-1000.0,-717.28515625
1578459925.9577434,-1000.0,-830.078125,-835.44921875,-1000.0,-1000.0
1578459925.9577434,-1000.0,-411.1328125,-424.8046875,-1000.0,-555.6640625
1578459925.9577434,-1000.0,-384.765625,-397.94921875,-1000.0,-157.71484375
1578459925.9577434,-1000.0,-460.9375,-476.07421875,-1000.0,-697.75390625
1578459925.9577434,-1000.0,-382.8125,-400.87890625,-1000.0,-1000.0
1578459925.9577434,-1000.0,-512.20703125,-527.83203125,-1000.0,-386.71875
1578459925.9577434,-1000.0,-886.23046875,-893.06640625,-1000.0,-363.76953125
1578459925.9577434,-1000.0,-979.98046875,-982.421875,-1000.0,-1000.0
1578459926.0046184,-1000.0,-812.5,-817.3828125,-1000.0,-896.484375
1578459926.0046184,-1000.0,-839.35546875,-843.26171875,-1000.0,-722.16796875
1578459926.0046184,-1000.0,-1000.0,-1000.0,-1000.0,-953.125
1578459926.0046184,-1000.0,-1000.0,-1000.0,-1000.0,-1000.0
1578459926.0046184,-1000.0,-792.96875,-799.8046875,-1000.0,-822.75390625
1578459926.0046184,-1000.0,-446.2890625,-459.47265625,-1000.0,-339.84375
1578459926.0046184,-1000.0,-536.1328125,-548.33984375,-1000.0,-323.2421875
1578459926.0046184,-1000.0,-857.91015625,-871.09375,-1000.0,-459.47265625
1578459926.0046184,-1000.0,-661.62109375,-680.6640625,-1000.0,-334.47265625
1578459926.0046184,-1000.0,-650.390625,-661.62109375,-1000.0,-302.24609375
1578459926.0046184,-1000.0,-1000.0,-1000.0,-1000.0,-795.8984375
1578459926.0046184,-1000.0,-939.453125,-942.87109375,-1000.0,-1000.0
1578459926.0514934,-1000.0,-829.1015625,-835.9375,-1000.0,-772.4609375
1578459926.0514934,-1000.0,-978.515625,-978.515625,-1000.0,-806.640625
1578459926.0514934,-1000.0,-1000.0,-1000.0,-1000.0,-1000.0
1578459926.0514934,-1000.0,-882.8125,-885.7421875,-1000.0,-1000.0
1578459926.0514934,-1000.0,-781.73828125,-791.015625,-1000.0,-753.90625
1578459926.0514934,-1000.0,-789.55078125,-804.19921875,-1000.0,-382.32421875
1578459926.0514934,-1000.0,-603.02734375,-618.1640625,-1000.0,-477.05078125
1578459926.0514934,-1000.0,-480.46875,-495.1171875,-1000.0,-885.7421875
1578459926.0514934,-1000.0,-492.67578125,-505.37109375,-1000.0,-501.953125
1578459926.0514934,-1000.0,-868.1640625,-871.09375,-1000.0,-384.765625
1578459926.0514934,-1000.0,-960.9375,-963.8671875,-1000.0,-1000.0
1578459926.0514934,-1000.0,-613.28125,-624.51171875,-1000.0,-946.2890625
1578459926.0983684,-1000.0,-802.734375,-807.12890625,-1000.0,-809.5703125
1578459926.0983684,-1000.0,-1000.0,-1000.0,-1000.0,-975.5859375
1578459926.0983684,-1000.0,-1000.0,-1000.0,-1000.0,-1000.0
1578459926.0983684,-1000.0,-834.47265625,-839.35546875,-1000.0,-874.51171875
1578459926.0983684,-1000.0,-869.62890625,-873.53515625,-1000.0,-759.27734375
1578459926.0983684,-1000.0,-809.5703125,-816.40625,-1000.0,-750.9765625
1578459926.0983684,-1000.0,-579.1015625,-591.796875,-1000.0,-572.265625
1578459926.0983684,-1000.0,-514.6484375,-529.296875,-1000.0,-450.68359375
1578459926.0983684,-1000.0,-706.54296875,-716.30859375,-1000.0,-250.9765625
1578459926.0983684,-1000.0,-1000.0,-1000.0,-1000.0,-724.12109375
1578459926.0983684,-1000.0,-961.42578125,-963.37890625,-1000.0,-964.35546875
1578459926.0983684,-1000.0,-853.515625,-859.86328125,-1000.0,-517.08984375
1578459926.1452434,-1000.0,-997.0703125,-997.0703125,-1000.0,-757.32421875
1578459926.1452434,-1000.0,-951.171875,-953.61328125,-1000.0,-1000.0
1578459926.1452434,-1000.0,-608.88671875,-623.046875,-1000.0,-1000.0
1578459926.1452434,-1000.0,-710.9375,-719.7265625,-1000.0,-801.7578125
1578459926.1452434,-1000.0,-1000.0,-1000.0,-1000.0,-840.33203125
1578459926.1452434,-1000.0,-803.7109375,-810.546875,-1000.0,-777.34375
1578459926.1452434,-1000.0,-567.87109375,-582.03125,-1000.0,-544.921875
1578459926.1452434,-1000.0,-760.7421875,-769.04296875,-1000.0,-299.8046875
1578459926.1452434,-1000.0,-1000.0,-1000.0,-1000.0,-431.640625
1578459926.1452434,-1000.0,-1000.0,-1000.0,-1000.0,-1000.0
1578459926.1452434,-1000.0,-869.62890625,-873.53515625,-1000.0,-969.7265625
1578459926.1452434,-1000.0,-648.92578125,-658.203125,-1000.0,-827.63671875
1578459926.1921184,-1000.0,-892.578125,-895.99609375,-1000.0,-996.09375
1578459926.1921184,-1000.0,-1000.0,-1000.0,-1000.0,-945.80078125
1578459926.1921184,-1000.0,-854.00390625,-856.93359375,-1000.0,-576.66015625
1578459926.1921184,-1000.0,-885.25390625,-891.11328125,-1000.0,-687.01171875
1578459926.1921184,-1000.0,-873.53515625,-884.27734375,-1000.0,-1000.0
1578459926.1921184,-1000.0,-650.87890625,-664.0625,-1000.0,-792.96875
1578459926.1921184,-1000.0,-593.26171875,-606.93359375,-1000.0,-480.46875
1578459926.1921184,-1000.0,-771.484375,-779.78515625,-1000.0,-640.625
1578459926.1921184,-1000.0,-1000.0,-1000.0,-1000.0,-987.79296875
1578459926.1921184,-1000.0,-1000.0,-1000.0,-1000.0,-1000.0
1578459926.1921184,-1000.0,-774.90234375,-784.1796875,-1000.0,-824.70703125
1578459926.1921184,-1000.0,-767.578125,-775.87890625,-1000.0,-407.71484375
1578459926.2389934,-1000.0,-1000.0,-1000.0,-1000.0,-783.69140625
1578459926.2389934,-1000.0,-916.50390625,-921.875,-1000.0,-1000.0
1578459926.2389934,-1000.0,-832.03125,-840.33203125,-1000.0,-818.84765625
1578459926.2389934,-1000.0,-995.60546875,-995.1171875,-1000.0,-880.859375
1578459926.2389934,-1000.0,-1000.0,-1000.0,-1000.0,-863.28125
1578459926.2389934,-1000.0,-819.82421875,-827.63671875,-1000.0,-633.7890625
1578459926.2389934,-1000.0,-678.7109375,-689.453125,-1000.0,-453.125
1578459926.2389934,-1000.0,-736.328125,-748.53515625,-1000.0,-612.79296875
1578459926.2389934,-1000.0,-928.22265625,-932.6171875,-1000.0,-1000.0
1578459926.2389934,-1000.0,-912.59765625,-916.015625,-1000.0,-1000.0
1578459926.2389934,-1000.0,-845.21484375,-851.07421875,-1000.0,-611.81640625
1578459926.2389934,-1000.0,-1000.0,-1000.0,-1000.0,-531.73828125
1578459926.2858684,-1000.0,-1000.0,-1000.0,-1000.0,-1000.0
1578459926.2858684,-1000.0,-889.6484375,-893.06640625,-1000.0,-930.17578125
1578459926.2858684,-1000.0,-873.53515625,-878.41796875,-1000.0,-821.2890625
1578459926.2858684,-1000.0,-1000.0,-1000.0,-1000.0,-983.88671875
1578459926.2858684,-1000.0,-993.1640625,-996.58203125,-1000.0,-1000.0
1578459926.2858684,-1000.0,-816.40625,-829.58984375,-1000.0,-788.0859375
1578459926.2858684,-1000.0,-685.05859375,-698.73046875,-1000.0,-400.390625
1578459926.2858684,-1000.0,-875.0,-880.859375,-1000.0,-513.671875
1578459926.2858684,-1000.0,-1000.0,-1000.0,-1000.0,-940.91796875
1578459926.2858684,-1000.0,-833.0078125,-840.8203125,-1000.0,-877.44140625
1578459926.2858684,-1000.0,-793.45703125,-806.640625,-1000.0,-781.73828125
1578459926.2858684,-1000.0,-1000.0,-1000.0,-1000.0,-1000.0
1578459926.3327434,-1000.0,-986.81640625,-987.3046875,-1000.0,-1000.0
1578459926.3327434,-1000.0,-866.2109375,-875.9765625,-1000.0,-856.4453125
1578459926.3327434,-1000.0,-910.64453125,-918.45703125,-1000.0,-840.33203125
1578459926.3327434,-1000.0,-1000.0,-1000.0,-1000.0,-1000.0
1578459926.3327434,-1000.0,-963.8671875,-966.30859375,-1000.0,-1000.0
1578459926.3327434,-1000.0,-805.6640625,-813.96484375,-1000.0,-720.21484375
1578459926.3327434,-1000.0,-713.37890625,-724.609375,-1000.0,-527.83203125
1578459926.3327434,-1000.0,-875.0,-880.859375,-1000.0,-860.83984375
1578459926.3327434,-1000.0,-941.89453125,-949.21875,-1000.0,-1000.0
1578459926.3327434,-1000.0,-812.01171875,-827.63671875,-1000.0,-666.9921875
1578459926.3327434,-1000.0,-948.2421875,-952.63671875,-1000.0,-580.078125
1578459926.3327434,-1000.0,-1000.0,-1000.0,-1000.0,-1000.0
1578459926.3796184,-1000.0,-876.46484375,-886.71875,-1000.0,-987.79296875
1578459926.3796184,-1000.0,-881.8359375,-889.16015625,-1000.0,-848.6328125
1578459926.3796184,-1000.0,-1000.0,-1000.0,-1000.0,-908.69140625
1578459926.3796184,-1000.0,-1000.0,-1000.0,-1000.0,-1000.0
1578459926.3796184,-1000.0,-911.62109375,-916.015625,-1000.0,-951.66015625
1578459926.3796184,-1000.0,-782.2265625,-792.96875,-1000.0,-727.5390625
1578459926.3796184,-1000.0,-800.78125,-812.5,-1000.0,-659.1796875
1578459926.3796184,-1000.0,-783.69140625,-796.875,-1000.0,-894.53125
1578459926.3796184,-1000.0,-765.13671875,-779.296875,-1000.0,-915.52734375
1578459926.3796184,-1000.0,-812.98828125,-826.66015625,-1000.0,-611.328125
1578459926.3796184,-1000.0,-961.9140625,-966.796875,-1000.0,-846.19140625
1578459926.3796184,-1000.0,-907.71484375,-914.55078125,-1000.0,-1000.0
1578459926.4264934,-1000.0,-857.421875,-867.67578125,-1000.0,-812.5
1578459926.4264934,-1000.0,-998.53515625,-999.51171875,-1000.0,-791.015625
1578459926.4264934,-1000.0,-1000.0,-1000.0,-1000.0,-1000.0
1578459926.4264934,-1000.0,-915.52734375,-922.8515625,-1000.0,-1000.0
1578459926.4264934,-1000.0,-878.90625,-891.6015625,-1000.0,-867.1875
1578459926.4264934,-1000.0,-906.73828125,-918.9453125,-1000.0,-732.91015625
1578459926.4264934,-1000.0,-856.4453125,-868.1640625,-1000.0,-775.390625
1578459926.4264934,-1000.0,-834.9609375,-846.19140625,-1000.0,-803.22265625
1578459926.4264934,-1000.0,-838.37890625,-850.5859375,-1000.0,-599.609375
1578459926.4264934,-1000.0,-937.98828125,-944.82421875,-1000.0,-527.83203125
1578459926.4264934,-1000.0,-1000.0,-1000.0,-1000.0,-939.453125
1578459926.4264934,-1000.0,-963.8671875,-966.796875,-1000.0,-921.38671875
1578459926.4733684,-1000.0,-896.97265625,-907.2265625,-1000.0,-837.890625
1578459926.4733684,-1000.0,-959.9609375,-965.33203125,-1000.0,-989.74609375
1578459926.4733684,-1000.0,-1000.0,-1000.0,-1000.0,-1000.0
1578459926.4733684,-1000.0,-958.0078125,-960.44921875,-1000.0,-908.203125
1578459926.4733684,-1000.0,-946.2890625,-954.58984375,-1000.0,-842.28515625
1578459926.4733684,-1000.0,-933.59375,-944.82421875,-1000.0,-858.3984375
1578459926.4733684,-1000.0,-882.8125,-894.04296875,-1000.0,-778.80859375
1578459926.4733684,-1000.0,-880.859375,-892.578125,-1000.0,-777.83203125
1578459926.4733684,-1000.0,-905.76171875,-919.43359375,-1000.0,-608.3984375
1578459926.4733684,-1000.0,-981.93359375,-990.234375,-1000.0,-773.4375
1578459926.4733684,-1000.0,-946.2890625,-954.1015625,-1000.0,-1000.0
1578459926.4733684,-1000.0,-906.73828125,-919.43359375,-1000.0,-927.734375
1578459926.5202434,-1000.0,-987.3046875,-992.1875,-1000.0,-868.1640625
1578459926.5202434,-1000.0,-1000.0,-1000.0,-1000.0,-975.5859375
1578459926.5202434,-1000.0,-969.7265625,-976.5625,-1000.0,-1000.0
1578459926.5202434,-1000.0,-930.17578125,-943.84765625,-1000.0,-919.43359375
1578459926.5202434,-1000.0,-987.79296875,-994.140625,-1000.0,-915.52734375
1578459926.5202434,-1000.0,-958.984375,-970.703125,-1000.0,-925.78125
1578459926.5202434,-1000.0,-909.66796875,-922.36328125,-1000.0,-897.94921875
1578459926.5202434,-1000.0,-914.55078125,-924.8046875,-1000.0,-709.47265625
1578459926.5202434,-1000.0,-906.73828125,-918.45703125,-1000.0,-622.55859375
1578459926.5202434,-1000.0,-942.87109375,-953.125,-1000.0,-956.0546875
1578459926.5202434,-1000.0,-947.265625,-959.47265625,-1000.0,-986.328125
1578459926.5202434,-1000.0,-951.66015625,-959.47265625,-1000.0,-916.015625
1578459926.5671184,-1000.0,-996.58203125,-999.51171875,-1000.0,-983.3984375
1578459926.5671184,-1000.0,-989.74609375,-997.55859375,-1000.0,-1000.0
1578459926.5671184,-1000.0,-958.0078125,-966.796875,-1000.0,-984.375
1578459926.5671184,-1000.0,-956.54296875,-963.8671875,-1000.0,-932.12890625
1578459926.5671184,-1000.0,-1000.0,-1000.0,-1000.0,-984.86328125
1578459926.5671184,-1000.0,-972.65625,-981.4453125,-1000.0,-950.1953125
1578459926.5671184,-1000.0,-952.63671875,-965.33203125,-1000.0,-839.84375
1578459926.5671184,-1000.0,-958.0078125,-969.23828125,-1000.0,-660.64453125
1578459926.5671184,-1000.0,-975.09765625,-980.95703125,-1000.0,-737.3046875
1578459926.5671184,-1000.0,-1000.0,-1000.0,-1000.0,-966.30859375
1578459926.5671184,-1000.0,-952.63671875,-961.42578125,-1000.0,-930.6640625
1578459926.5671184,-1000.0,-918.9453125,-931.15234375,-1000.0,-917.96875
1578459926.6139934,-1000.0,-966.30859375,-973.14453125,-1000.0,-1000.0
1578459926.6139934,-1000.0,-990.72265625,-995.60546875,-1000.0,-1000.0
1578459926.6139934,-1000.0,-962.40234375,-964.35546875,-1000.0,-928.7109375
1578459926.6139934,-1000.0,-951.171875,-947.75390625,-1000.0,-913.57421875
1578459926.6139934,-1000.0,-965.8203125,-937.5,-1000.0,-1000.0
1578459926.6139934,-1000.0,-977.5390625,-950.68359375,-1000.0,-980.46875
1578459926.6139934,-1000.0,-977.5390625,-1000.0,-1000.0,-729.00390625
1578459926.6139934,-1000.0,-974.609375,-936.03515625,-1000.0,-638.671875
1578459926.6139934,-1000.0,-956.0546875,-826.171875,-1000.0,-941.89453125
1578459926.6139934,-1000.0,-950.68359375,-910.15625,-1000.0,-1000.0
1578459926.6139934,-1000.0,-970.21484375,-886.71875,-1000.0,-954.58984375
1578459926.6139934,-1000.0,-986.81640625,-727.5390625,-1000.0,-920.41015625
1578459926.6608684,-1000.0,-990.234375,-654.78515625,-1000.0,-965.33203125
1578459926.6608684,-1000.0,-978.515625,-783.203125,-1000.0,-1000.0
1578459926.6608684,-1000.0,-962.890625,-1000.0,-1000.0,-954.58984375
1578459926.6608684,-1000.0,-985.83984375,-807.12890625,-1000.0,-948.2421875
1578459926.6608684,-1000.0,-994.62890625,-583.49609375,-1000.0,-994.140625
1578459926.6608684,-1000.0,-990.72265625,-859.375,-1000.0,-962.890625
1578459926.6608684,-1000.0,-981.93359375,-1000.0,-1000.0,-716.30859375
1578459926.6608684,-1000.0,-986.328125,-754.39453125,-1000.0,-779.78515625
1578459926.6608684,-1000.0,-997.55859375,-433.10546875,-1000.0,-1000.0
1578459926.6608684,-1000.0,-972.65625,-826.171875,-1000.0,-947.75390625
1578459926.6608684,-1000.0,-979.98046875,-830.56640625,-1000.0,-917.96875
1578459926.6608684,-1000.0,-998.046875,-425.29296875,-1000.0,-1000.0
1578459926.7077434,-1000.0,-982.421875,-543.9453125,-1000.0,-1000.0
1578459926.7077434,-1000.0,-974.609375,-743.1640625,-1000.0,-958.0078125
1578459926.7077434,-1000.0,-993.65234375,-518.06640625,-1000.0,-910.64453125
1578459926.7077434,-1000.0,-1000.0,-280.2734375,-1000.0,-969.23828125
1578459926.7077434,-1000.0,-986.328125,-569.3359375,-1000.0,-1000.0
1578459926.7077434,-1000.0,-984.86328125,-995.60546875,-1000.0,-887.6953125
1578459926.7077434,-1000.0,-990.72265625,-1000.0,-1000.0,-814.94140625
1578459926.7077434,-1000.0,-976.07421875,-981.4453125,-1000.0,-973.14453125
1578459926.7077434,-1000.0,-962.40234375,-979.4921875,-1000.0,-1000.0
1578459926.7077434,-1000.0,-977.05078125,-1000.0,-1000.0,-854.00390625
1578459926.7077434,-1000.0,-998.53515625,-576.171875,-1000.0,-832.51953125
1578459926.7077434,-1000.0,-1000.0,-1.46484375,-1000.0,-1000.0
1578459926.7546184,-1000.0,-989.74609375,-395.99609375,-1000.0,-998.53515625
1578459926.7546184,-1000.0,-987.79296875,-550.29296875,-1000.0,-963.8671875
1578459926.7546184,-1000.0,-1000.0,-190.4296875,-1000.0,-979.00390625
1578459926.7546184,-1000.0,-1000.0,-86.9140625,-1000.0,-1000.0
1578459926.7546184,-1000.0,-987.79296875,-509.765625,-1000.0,-989.74609375
1578459926.7546184,-1000.0,-981.93359375,-1000.0,-1000.0,-865.72265625
1578459926.7546184,-1000.0,-989.74609375,-984.375,-1000.0,-887.6953125
1578459926.7546184,-1000.0,-992.1875,-565.4296875,-1000.0,-985.83984375
1578459926.7546184,-1000.0,-999.51171875,-749.51171875,-1000.0,-944.82421875
1578459926.7546184,-1000.0,-999.51171875,-829.58984375,-1000.0,-728.515625
1578459926.7546184,-1000.0,-1000.0,-17.08984375,-1000.0,-842.28515625
1578459926.7546184,-1000.0,-999.51171875,-15.625,-1000.0,-1000.0
1578459926.8014934,-1000.0,-994.140625,-462.890625,-1000.0,-972.65625
1578459926.8014934,-1000.0,-998.046875,-167.96875,-1000.0,-978.02734375
1578459926.8014934,-1000.0,-1000.0,128.90625,-1000.0,-1000.0
1578459926.8014934,-1000.0,-997.55859375,-142.578125,-1000.0,-1000.0
1578459926.8014934,-1000.0,-983.88671875,-629.8828125,-1000.0,-970.21484375
1578459926.8014934,-1000.0,-979.00390625,-911.1328125,-1000.0,-921.38671875
1578459926.8014934,-1000.0,-988.76953125,-924.8046875,-1000.0,-931.640625
1578459926.8014934,-1000.0,-981.4453125,-842.7734375,-1000.0,-1000.0
1578459926.8014934,-1000.0,-979.98046875,-974.609375,-1000.0,-829.1015625
1578459926.8014934,-1000.0,-998.046875,-431.15234375,-1000.0,-705.078125
1578459926.8014934,-1000.0,-1000.0,-46.875,-1000.0,-989.2578125
1578459926.8014934,-1000.0,-996.09375,-755.37109375,-1000.0,-1000.0
1578459926.8483684,-1000.0,-995.1171875,-507.8125,-1000.0,-987.79296875
1578459926.8483684,-1000.0,-1000.0,238.28125,-1000.0,-1000.0
1578459926.8483684,-1000.0,-1000.0,227.5390625,-1000.0,-1000.0
1578459926.8483684,-1000.0,-988.76953125,-398.92578125,-1000.0,-998.53515625
1578459926.8483684,-1000.0,-989.2578125,-406.73828125,-1000.0,-985.3515625
1578459926.8483684,-1000.0,-1000.0,-369.140625,-1000.0,-971.6796875
1578459926.8483684,-1000.0,-994.62890625,-780.2734375,-1000.0,-961.9140625
1578459926.8483684,-1000.0,-983.88671875,-951.171875,-1000.0,-944.82421875
1578459926.8483684,-1000.0,-991.69921875,-732.421875,-1000.0,-744.62890625
1578459926.8483684,-1000.0,-1000.0,168.9453125,-1000.0,-839.35546875
1578459926.8483684,-1000.0,-1000.0,284.66796875,-1000.0,-1000.0
1578459926.8483684,-1000.0,-999.51171875,-219.23828125,-1000.0,-918.9453125
1578459926.8952434,-1000.0,-999.51171875,-44.43359375,-1000.0,-935.546875
1578459926.8952434,-1000.0,-1000.0,-145.01953125,-1000.0,-1000.0
1578459926.8952434,-1000.0,-998.53515625,-460.44921875,-1000.0,-1000.0
1578459926.8952434,-1000.0,-991.2109375,-356.4453125,-1000.0,-968.26171875
1578459926.8952434,-1000.0,-1000.0,-46.875,-1000.0,-976.07421875
1578459926.8952434,-1000.0,-995.60546875,-443.84765625,-1000.0,-967.7734375
1578459926.8952434,-1000.0,-988.28125,-887.20703125,-1000.0,-992.67578125
1578459926.8952434,-1000.0,-994.140625,-1000.0,-1000.0,-826.66015625
1578459926.8952434,-1000.0,-995.60546875,-516.6015625,-1000.0,-719.7265625
1578459926.8952434,-1000.0,-1000.0,477.05078125,-1000.0,-984.86328125
1578459926.8952434,-1000.0,-990.72265625,-86.42578125,-1000.0,-1000.0
1578459926.8952434,-1000.0,-984.375,-449.70703125,-1000.0,-984.86328125
1578459926.9421184,-1000.0,-1000.0,256.8359375,-1000.0,-1000.0
1578459926.9421184,-1000.0,-1000.0,375.0,-1000.0,-988.76953125
1578459926.9421184,-1000.0,-985.83984375,-251.953125,-1000.0,-979.4921875
1578459926.9421184,-1000.0,-983.3984375,-468.75,-1000.0,-975.5859375
1578459926.9421184,-1000.0,-1000.0,-379.8828125,-1000.0,-988.76953125
1578459926.9421184,-1000.0,-995.1171875,-730.95703125,-1000.0,-987.3046875
1578459926.9421184,-1000.0,-990.234375,-959.47265625,-1000.0,-934.5703125
1578459926.9421184,-1000.0,-995.60546875,-725.5859375,-1000.0,-664.0625
1578459926.9421184,-1000.0,-1000.0,143.5546875,-1000.0,-763.671875
1578459926.9421184,-1000.0,-1000.0,314.94140625,-1000.0,-1000.0
1578459926.9421184,-1000.0,-997.0703125,-145.5078125,-1000.0,-978.02734375
1578459926.9421184,-1000.0,-998.046875,12.6953125,-1000.0,-976.5625
1578459926.9889934,-1000.0,-1000.0,428.22265625,-1000.0,-1000.0
1578459926.9889934,-1000.0,-996.58203125,73.73046875,-1000.0,-1000.0
1578459926.9889934,-1000.0,-987.3046875,-410.15625,-1000.0,-976.5625
1578459926.9889934,-1000.0,-998.046875,13.671875,-1000.0,-982.91015625
1578459926.9889934,-1000.0,-1000.0,203.61328125,-1000.0,-949.21875
1578459926.9889934,-1000.0,-991.69921875,-493.1640625,-1000.0,-952.1484375
1578459926.9889934,-1000.0,-991.2109375,-1000.0,-1000.0,-820.80078125
1578459926.9889934,-1000.0,-1000.0,-777.83203125,-1000.0,-736.81640625
1578459926.9889934,-1000.0,-1000.0,221.6796875,-1000.0,-982.421875
1578459926.9889934,-1000.0,-991.2109375,65.91796875,-1000.0,-1000.0
1578459926.9889934,-1000.0,-982.91015625,-371.09375,-1000.0,-987.79296875
1578459926.9889934,-1000.0,-1000.0,180.17578125,-1000.0,-1000.0
1578459927.0358684,-1000.0,-1000.0,429.6875,-1000.0,-1000.0
1578459927.0358684,-1000.0,-982.421875,-176.7578125,-1000.0,-999.0234375
1578459927.0358684,-1000.0,-978.02734375,-407.2265625,-1000.0,-985.83984375
1578459927.0358684,-1000.0,-1000.0,203.61328125,-1000.0,-990.72265625
1578459927.0358684,-1000.0,-1000.0,140.625,-1000.0,-1000.0
1578459927.0358684,-1000.0,-996.09375,-538.57421875,-1000.0,-1000.0
1578459927.0358684,-1000.0,-987.3046875,-1000.0,-1000.0,-730.46875
1578459927.0358684,-1000.0,-990.72265625,-458.49609375,-1000.0,-723.14453125
1578459927.0358684,-1000.0,-1000.0,190.91796875,-1000.0,-1000.0
1578459927.0358684,-1000.0,-985.3515625,-568.84765625,-1000.0,-986.81640625
1578459927.0358684,-1000.0,-987.79296875,-668.9453125,-1000.0,-968.26171875
1578459927.0358684,-1000.0,-1000.0,334.9609375,-1000.0,-1000.0
1578459927.0827434,-1000.0,-1000.0,262.20703125,-1000.0,-1000.0
1578459927.0827434,-1000.0,-990.234375,-294.921875,-1000.0,-971.19140625
1578459927.0827434,-1000.0,-994.140625,-105.46875,-1000.0,-963.8671875
1578459927.0827434,-1000.0,-1000.0,332.03125,-1000.0,-996.58203125
1578459927.0827434,-1000.0,-999.0234375,41.50390625,-1000.0,-1000.0
1578459927.0827434,-1000.0,-986.328125,-719.7265625,-1000.0,-870.60546875
1578459927.0827434,-1000.0,-975.5859375,-927.734375,-1000.0,-799.8046875
1578459927.0827434,-1000.0,-993.65234375,-166.9921875,-1000.0,-972.16796875
1578459927.0827434,-1000.0,-992.67578125,-56.640625,-1000.0,-1000.0
1578459927.0827434,-1000.0,-976.07421875,-801.26953125,-1000.0,-854.00390625
1578459927.0827434,-1000.0,-997.55859375,-118.1640625,-1000.0,-818.359375
1578459927.0827434,-1000.0,-1000.0,479.00390625,-1000.0,-1000.0
1578459927.1296184,-1000.0,-997.55859375,-297.8515625,-1000.0,-999.51171875
1578459927.1296184,-1000.0,-998.53515625,-425.29296875,-1000.0,-986.328125
1578459927.1296184,-1000.0,-999.51171875,287.109375,-1000.0,-995.1171875
1578459927.1296184,-1000.0,-1000.0,375.48828125,-1000.0,-1000.0
1578459927.1296184,-1000.0,-981.4453125,-321.2890625,-1000.0,-998.046875
1578459927.1296184,-1000.0,-966.30859375,-941.89453125,-1000.0,-935.546875
1578459927.1296184,-1000.0,-983.3984375,-790.52734375,-1000.0,-933.59375
1578459927.1296184,-1000.0,-997.55859375,-210.9375,-1000.0,-1000.0
1578459927.1296184,-1000.0,-985.83984375,-454.58984375,-1000.0,-974.12109375
1578459927.1296184,-1000.0,-982.421875,-818.84765625,-1000.0,-790.0390625
1578459927.1296184,-1000.0,-1000.0,216.796875,-1000.0,-898.4375
1578459927.1296184,-1000.0,-1000.0,403.3203125,-1000.0,-1000.0
1578459927.1764934,-1000.0,-998.53515625,-158.203125,-1000.0,-908.203125
1578459927.1764934,-1000.0,-999.51171875,69.3359375,-1000.0,-894.04296875
1578459927.1764934,-1000.0,-1000.0,372.55859375,-1000.0,-1000.0
1578459927.1764934,-1000.0,-996.09375,-270.01953125,-1000.0,-1000.0
1578459927.1764934,-1000.0,-988.28125,-560.05859375,-1000.0,-952.63671875
1578459927.1764934,-1000.0,-993.1640625,-460.44921875,-1000.0,-909.66796875
1578459927.1764934,-1000.0,-992.67578125,-683.10546875,-1000.0,-942.3828125
1578459927.1764934,-1000.0,-974.609375,-719.23828125,-1000.0,-1000.0
1578459927.1764934,-1000.0,-968.75,-938.4765625,-1000.0,-837.40234375
1578459927.1764934,-1000.0,-995.1171875,-308.10546875,-1000.0,-705.078125
1578459927.1764934,-1000.0,-1000.0,622.0703125,-1000.0,-985.3515625
1578459927.1764934,-1000.0,-997.55859375,41.9921875,-1000.0,-1000.0
1578459927.2233684,-1000.0,-997.55859375,-357.91015625,-1000.0,-982.421875
1578459927.2233684,-1000.0,-1000.0,277.34375,-1000.0,-996.58203125
1578459927.2233684,-1000.0,-1000.0,440.91796875,-1000.0,-1000.0
1578459927.2233684,-1000.0,-988.28125,-184.08203125,-1000.0,-984.375
1578459927.2233684,-1000.0,-988.76953125,-400.87890625,-1000.0,-950.1953125
1578459927.2233684,-1000.0,-993.65234375,-402.34375,-1000.0,-972.65625
1578459927.2233684,-1000.0,-990.72265625,-684.5703125,-1000.0,-992.1875
1578459927.2233684,-1000.0,-998.53515625,-914.55078125,-1000.0,-974.609375
1578459927.2233684,-1000.0,-997.0703125,-788.57421875,-1000.0,-740.72265625
1578459927.2233684,-1000.0,-1000.0,201.66015625,-1000.0,-823.2421875
1578459927.2233684,-1000.0,-1000.0,356.93359375,-1000.0,-1000.0
1578459927.2233684,-1000.0,-999.0234375,-166.9921875,-1000.0,-971.19140625
1578459927.2702434,-1000.0,-999.51171875,117.67578125,-1000.0,-971.6796875
1578459927.2702434,-1000.0,-1000.0,566.89453125,-1000.0,-1000.0
1578459927.2702434,-1000.0,-999.51171875,225.09765625,-1000.0,-1000.0
1578459927.2702434,-1000.0,-991.69921875,-240.72265625,-1000.0,-976.5625
1578459927.2702434,-1000.0,-997.55859375,112.79296875,-1000.0,-976.07421875
1578459927.2702434,-1000.0,-1000.0,-84.9609375,-1000.0,-992.1875
1578459927.2702434,-1000.0,-995.60546875,-544.921875,-1000.0,-974.609375
1578459927.2702434,-1000.0,-977.05078125,-843.75,-1000.0,-748.53515625
1578459927.2702434,-1000.0,-986.328125,-538.57421875,-1000.0,-677.734375
1578459927.2702434,-1000.0,-1000.0,332.51953125,-1000.0,-965.33203125
1578459927.2702434,-1000.0,-996.58203125,232.91015625,-1000.0,-1000.0
1578459927.2702434,-1000.0,-996.09375,16.6015625,-1000.0,-987.79296875
1578459927.3171184,-1000.0,-1000.0,531.73828125,-1000.0,-1000.0
1578459927.3171184,-1000.0,-1000.0,601.07421875,-1000.0,-1000.0
1578459927.3171184,-1000.0,-985.3515625,-48.33984375,-1000.0,-999.0234375
1578459927.3171184,-1000.0,-981.4453125,-194.3359375,-1000.0,-989.2578125
1578459927.3171184,-1000.0,-1000.0,286.62109375,-1000.0,-989.74609375
1578459927.3171184,-1000.0,-983.88671875,-416.50390625,-1000.0,-1000.0
1578459927.3171184,-1000.0,-969.23828125,-1000.0,-1000.0,-980.46875
1578459927.3171184,-1000.0,-988.28125,-729.4921875,-1000.0,-734.86328125
1578459927.3171184,-1000.0,-1000.0,171.875,-1000.0,-826.171875
1578459927.3171184,-1000.0,-1000.0,324.70703125,-975.5859375,-1000.0
1578459927.3171184,-1000.0,-986.328125,-259.27734375,-985.3515625,-985.3515625
1578459927.3171184,-1000.0,-984.375,-601.07421875,-1000.0,-992.1875
1578459927.3639934,-1000.0,-1000.0,-464.35546875,151.85546875,-1000.0
1578459927.3639934,-1000.0,-1000.0,-354.4921875,-916.015625,-1000.0
1578459927.3639934,-1000.0,-1000.0,-668.45703125,916.9921875,-987.79296875
1578459927.3639934,-1000.0,-1000.0,-545.41015625,963.8671875,-990.234375
1578459927.3639934,-1000.0,-1000.0,-597.65625,969.7265625,-989.2578125
1578459927.3639934,-1000.0,-1000.0,-945.80078125,968.26171875,-1000.0
1578459927.3639934,-1000.0,-1000.0,-1000.0,968.26171875,-864.2578125
1578459927.3639934,-1000.0,-1000.0,-760.25390625,968.26171875,-739.2578125
1578459927.3639934,-1000.0,-1000.0,-661.1328125,968.26171875,-982.91015625
1578459927.3639934,-1000.0,-1000.0,-922.8515625,968.26171875,-1000.0
1578459927.3639934,-1000.0,-1000.0,-948.73046875,968.26171875,-981.93359375
1578459927.3639934,-1000.0,-1000.0,-833.0078125,968.26171875,-982.91015625
1578459927.4108684,-1000.0,-1000.0,-913.0859375,968.26171875,-988.28125
1578459927.4108684,-1000.0,-1000.0,-999.0234375,968.26171875,-996.58203125
1578459927.4108684,-1000.0,-1000.0,-999.51171875,968.26171875,-938.96484375
1578459927.4108684,-1000.0,-1000.0,-998.53515625,968.26171875,-933.10546875
1578459927.4108684,-1000.0,-1000.0,-1000.0,968.26171875,-949.70703125
1578459927.4108684,-1000.0,-1000.0,-999.51171875,968.26171875,-883.30078125
1578459927.4108684,-1000.0,-1000.0,-1000.0,968.26171875,-637.20703125
1578459927.4108684,-1000.0,-1000.0,-990.234375,968.26171875,-691.40625
1578459927.4108684,-1000.0,-1000.0,-975.5859375,968.26171875,-904.78515625
1578459927.4108684,-1000.0,-1000.0,-1000.0,968.26171875,-815.91796875
1578459927.4108684,-1000.0,-1000.0,-940.91796875,968.26171875,-764.16015625
1578459927.4108684,-1000.0,-1000.0,-815.91796875,968.26171875,-840.8203125
1578459927.4577434,-1000.0,-999.0234375,-873.046875,968.26171875,-850.09765625
1578459927.4577434,-1000.0,-998.046875,-920.41015625,968.26171875,-782.71484375
1578459927.4577434,-1000.0,-1000.0,-657.2265625,973.14453125,-755.859375
1578459927.4577434,-1000.0,-998.53515625,-385.25390625,927.24609375,-811.03515625
1578459927.4577434,-1000.0,-1000.0,-593.75,-983.88671875,-825.68359375
1578459927.4577434,-1000.0,-992.67578125,-996.58203125,686.03515625,-674.31640625
1578459927.4577434,-1000.0,-919.921875,-940.4296875,-532.2265625,-671.875
1578459927.4577434,-1000.0,-883.7890625,-739.74609375,-1000.0,-835.44921875
1578459927.4577434,-1000.0,-885.25390625,-724.12109375,-960.44921875,-879.39453125
1578459927.4577434,-1000.0,-881.8359375,-774.90234375,-1000.0,-717.28515625
1578459927.4577434,-1000.0,-937.01171875,11.23046875,-1000.0,-695.3125
1578459927.4577434,-1000.0,-986.81640625,732.421875,-1000.0,-902.83203125
1578459927.5046184,-1000.0,-951.171875,97.65625,-1000.0,-896.484375
1578459927.5046184,-1000.0,-930.17578125,-202.1484375,-1000.0,-849.12109375
1578459927.5046184,-1000.0,-969.23828125,308.10546875,-1000.0,-889.16015625
1578459927.5046184,-1000.0,-981.4453125,411.1328125,-1000.0,-964.35546875
1578459927.5046184,-1000.0,-942.3828125,-258.7890625,-1000.0,-929.19921875
1578459927.5046184,-1000.0,-914.0625,-965.33203125,-1000.0,-780.76171875
1578459927.5046184,-1000.0,-934.5703125,-903.80859375,-1000.0,-795.8984375
1578459927.5046184,-1000.0,-941.40625,-774.90234375,-1000.0,-908.69140625
1578459927.5046184,-1000.0,-943.84765625,-931.15234375,-1000.0,-898.4375
1578459927.5046184,-1000.0,-953.125,-807.6171875,-1000.0,-774.4140625
1578459927.5046184,-1000.0,-984.86328125,-47.36328125,-1000.0,-903.80859375
1578459927.5046184,-1000.0,-983.88671875,-138.18359375,-1000.0,-1000.0
1578459927.5514934,-1000.0,-949.70703125,-666.015625,-1000.0,-974.609375
1578459927.5514934,-1000.0,-967.28515625,-414.55078125,-1000.0,-980.46875
1578459927.5514934,-1000.0,-990.72265625,-171.38671875,-1000.0,-1000.0
1578459927.5514934,-1000.0,-969.23828125,-511.71875,-1000.0,-1000.0
1578459927.5514934,-1000.0,-947.265625,-928.22265625,-1000.0,-970.703125
1578459927.5514934,-1000.0,-964.35546875,-992.1875,-1000.0,-953.61328125
1578459927.5514934,-1000.0,-978.02734375,-985.3515625,-1000.0,-951.66015625
1578459927.5514934,-1000.0,-965.33203125,-990.234375,-1000.0,-983.3984375
1578459927.5514934,-1000.0,-969.23828125,-1000.0,-1000.0,-803.22265625
1578459927.5514934,-1000.0,-997.0703125,-577.1484375,-1000.0,-736.328125
1578459927.5514934,-1000.0,-998.046875,-421.875,-1000.0,-997.0703125
1578459927.5514934,-1000.0,-978.02734375,-984.86328125,-1000.0,-1000.0
1578459927.5983684,-1000.0,-985.83984375,-609.86328125,-1000.0,-989.2578125
1578459927.5983684,-1000.0,-1000.0,20.5078125,-1000.0,-1000.0
1578459927.5983684,-1000.0,-1000.0,17.08984375,-1000.0,-1000.0
1578459927.5983684,-1000.0,-990.234375,-522.94921875,-1000.0,-998.53515625
1578459927.5983684,-1000.0,-990.234375,-560.546875,-1000.0,-989.2578125
1578459927.5983684,-1000.0,-1000.0,-630.37109375,-1000.0,-968.26171875
1578459927.5983684,-1000.0,-999.0234375,-909.66796875,-1000.0,-958.0078125
1578459927.5983684,-1000.0,-993.65234375,-939.453125,-1000.0,-967.28515625
1578459927.5983684,-1000.0,-997.55859375,-724.609375,-1000.0,-777.83203125
1578459927.5983684,-1000.0,-1000.0,215.8203125,-1000.0,-843.75
1578459927.5983684,-1000.0,-1000.0,421.875,-1000.0,-1000.0
1578459927.5983684,-1000.0,-1000.0,-80.56640625,-1000.0,-960.9375
1578459927.6452434,-1000.0,-1000.0,123.53515625,-1000.0,-955.078125
1578459927.6452434,-1000.0,-1000.0,148.4375,-994.140625,-1000.0
1578459927.6452434,-1000.0,-1000.0,-386.71875,-998.046875,-1000.0
1578459927.6452434,-1000.0,-998.53515625,-245.1171875,-997.0703125,-975.09765625
1578459927.6452434,-1000.0,-1000.0,311.03515625,-1000.0,-982.91015625
1578459927.6452434,-1000.0,-1000.0,-17.08984375,-930.17578125,-970.21484375
1578459927.6452434,-1000.0,-1000.0,-452.63671875,-910.64453125,-978.515625
1578459927.6452434,-1000.0,-997.55859375,-852.05078125,-1000.0,-832.51953125
1578459927.6452434,-1000.0,-998.046875,-256.34765625,-1000.0,-739.74609375
1578459927.6452434,-1000.0,-1000.0,934.08203125,-998.53515625,-986.81640625
1578459927.6452434,-1000.0,-1000.0,297.8515625,-1000.0,-1000.0
1578459927.6452434,-1000.0,-1000.0,-144.53125,-1000.0,-987.3046875
1578459927.6921184,-1000.0,-1000.0,671.38671875,-1000.0,-1000.0
1578459927.6921184,-1000.0,-1000.0,897.4609375,-1000.0,-1000.0
1578459927.6921184,-1000.0,-1000.0,274.90234375,-1000.0,-996.58203125
1578459927.6921184,-1000.0,-1000.0,50.29296875,-1000.0,-979.98046875
1578459927.6921184,-1000.0,-999.51171875,149.90234375,-1000.0,-989.74609375
1578459927.6921184,-1000.0,-1000.0,-89.35546875,-1000.0,-998.53515625
1578459927.6921184,-1000.0,-987.79296875,-610.3515625,-1000.0,-1000.0
1578459927.6921184,-1000.0,-981.93359375,-620.1171875,-1000.0,-758.7890625
1578459927.6921184,-1000.0,-1000.0,649.90234375,-1000.0,-805.6640625
1578459927.6921184,-1000.0,-1000.0,978.02734375,-1000.0,-1000.0
1578459927.6921184,-1000.0,-1000.0,464.84375,-1000.0,-975.5859375
1578459927.6921184,-1000.0,-1000.0,575.1953125,-1000.0,-969.7265625
1578459927.7389934,-1000.0,-1000.0,959.9609375,-1000.0,-1000.0
1578459927.7389934,-1000.0,-1000.0,606.4453125,-1000.0,-1000.0
1578459927.7389934,-1000.0,-996.09375,87.40234375,-1000.0,-982.91015625
1578459927.7389934,-1000.0,-998.046875,407.71484375,-1000.0,-984.86328125
1578459927.7389934,-1000.0,-1000.0,575.1953125,-1000.0,-989.74609375
1578459927.7389934,-1000.0,-990.234375,-143.5546875,-1000.0,-1000.0
1578459927.7389934,-1000.0,-974.609375,-937.01171875,-1000.0,-856.4453125
1578459927.7389934,-1000.0,-986.328125,-713.37890625,-1000.0,-732.421875
1578459927.7389934,-1000.0,-1000.0,426.7578125,-1000.0,-986.328125
1578459927.7389934,-1000.0,-990.72265625,279.78515625,-1000.0,-1000.0
1578459927.7389934,-1000.0,-980.95703125,-204.1015625,-1000.0,-990.234375
1578459927.7389934,-1000.0,-999.51171875,304.19921875,-1000.0,-1000.0
1578459927.7858684,-1000.0,-1000.0,560.546875,-1000.0,-1000.0
1578459927.7858684,-1000.0,-980.95703125,-76.66015625,-1000.0,-1000.0
1578459927.7858684,-1000.0,-975.5859375,-362.3046875,-1000.0,-996.58203125
1578459927.7858684,-1000.0,-1000.0,214.35546875,-1000.0,-995.1171875
1578459927.7858684,-1000.0,-998.046875,92.28515625,-1000.0,-996.58203125
1578459927.7858684,-1000.0,-991.69921875,-636.71875,-940.91796875,-1000.0
1578459927.7858684,-1000.0,-993.1640625,-979.4921875,-1000.0,-768.06640625
1578459927.7858684,-1000.0,-997.0703125,-232.91015625,-547.36328125,-756.8359375
1578459927.7858684,-1000.0,-1000.0,-2.44140625,785.15625,-1000.0
1578459927.7858684,-1000.0,-1000.0,-775.390625,-987.79296875,-988.76953125
1578459927.7858684,-1000.0,-1000.0,-749.51171875,921.875,-978.515625
1578459927.7858684,-1000.0,-1000.0,-110.3515625,977.05078125,-1000.0
1578459927.8327434,-1000.0,-1000.0,-321.2890625,968.26171875,-1000.0
1578459927.8327434,-1000.0,-1000.0,-823.2421875,968.26171875,-974.609375
1578459927.8327434,-1000.0,-1000.0,-660.64453125,968.26171875,-969.23828125
1578459927.8327434,-1000.0,-1000.0,-385.25390625,968.26171875,-990.72265625
1578459927.8327434,-1000.0,-1000.0,-682.6171875,968.26171875,-1000.0
1578459927.8327434,-1000.0,-1000.0,-1000.0,968.26171875,-854.00390625
1578459927.8327434,-1000.0,-1000.0,-1000.0,968.26171875,-716.796875
1578459927.8327434,-1000.0,-1000.0,-745.1171875,968.26171875,-958.0078125
1578459927.8327434,-1000.0,-1000.0,-720.703125,968.26171875,-1000.0
1578459927.8327434,-1000.0,-1000.0,-1000.0,968.26171875,-870.60546875
1578459927.8327434,-1000.0,-1000.0,-642.08984375,968.26171875,-841.30859375
1578459927.8327434,-1000.0,-1000.0,-438.96484375,968.26171875,-1000.0
1578459927.8796184,-1000.0,-1000.0,-869.140625,968.26171875,-1000.0
1578459927.8796184,-1000.0,-1000.0,-826.171875,968.26171875,-946.77734375
1578459927.8796184,-1000.0,-1000.0,-476.5625,968.26171875,-949.21875
1578459927.8796184,-1000.0,-1000.0,-474.12109375,968.26171875,-999.51171875
1578459927.8796184,-1000.0,-1000.0,-785.64453125,968.26171875,-948.73046875
1578459927.8796184,-1000.0,-1000.0,-1000.0,968.26171875,-843.26171875
1578459927.8796184,-1000.0,-1000.0,-990.72265625,968.26171875,-878.41796875
1578459927.8796184,-1000.0,-1000.0,-979.4921875,968.26171875,-958.0078125
1578459927.8796184,-1000.0,-998.53515625,-1000.0,968.26171875,-922.8515625
1578459927.8796184,-1000.0,-1000.0,-899.4140625,968.26171875,-729.98046875
1578459927.8796184,-1000.0,-1000.0,-320.3125,968.26171875,-833.49609375
1578459927.8796184,-1000.0,-1000.0,-211.9140625,968.26171875,-1000.0
1578459927.9264934,-1000.0,-1000.0,-654.296875,976.07421875,-879.8828125
1578459927.9264934,-1000.0,-997.0703125,-404.296875,921.38671875,-868.65234375
1578459927.9264934,-1000.0,-1000.0,-274.4140625,-978.515625,-975.09765625
1578459927.9264934,-1000.0,-985.83984375,-856.93359375,726.5625,-989.2578125
1578459927.9264934,-1000.0,-904.296875,-869.62890625,-570.80078125,-887.20703125
1578459927.9264934,-1000.0,-881.34765625,-814.94140625,-1000.0,-818.84765625
1578459927.9264934,-1000.0,-891.11328125,-1000.0,-876.953125,-897.4609375
1578459927.9264934,-1000.0,-872.0703125,-966.30859375,-1000.0,-967.7734375
1578459927.9264934,-1000.0,-886.71875,-1000.0,-1000.0,-787.59765625
1578459927.9264934,-1000.0,-934.5703125,-464.84375,-997.0703125,-679.6875
1578459927.9264934,-1000.0,-977.5390625,337.890625,-1000.0,-960.9375
1578459927.9264934,-1000.0,-950.68359375,-204.58984375,-1000.0,-1000.0
1578459927.9733684,-1000.0,-925.78125,-596.19140625,-1000.0,-952.63671875
1578459927.9733684,-1000.0,-973.14453125,68.359375,-1000.0,-976.07421875
1578459927.9733684,-1000.0,-993.65234375,255.37109375,-1000.0,-1000.0
1578459927.9733684,-1000.0,-959.47265625,-334.47265625,-1000.0,-920.41015625
1578459927.9733684,-1000.0,-953.125,-492.67578125,-1000.0,-851.5625
1578459927.9733684,-1000.0,-973.6328125,-429.19921875,-1000.0,-897.4609375
1578459927.9733684,-1000.0,-970.703125,-687.98828125,-1000.0,-962.40234375
1578459927.9733684,-1000.0,-979.00390625,-933.59375,-1000.0,-977.05078125
1578459927.9733684,-1000.0,-987.79296875,-690.91796875,-1000.0,-744.140625
1578459927.9733684,-1000.0,-999.51171875,383.30078125,-1000.0,-814.453125
1578459927.9733684,-1000.0,-1000.0,560.05859375,-1000.0,-1000.0
1578459927.9733684,-1000.0,-998.046875,131.34765625,-1000.0,-974.12109375
1578459928.0202434,-1000.0,-999.51171875,392.578125,-1000.0,-970.703125
1578459928.0202434,-1000.0,-1000.0,877.9296875,-1000.0,-1000.0
1578459928.0202434,-1000.0,-1000.0,588.8671875,-1000.0,-1000.0
1578459928.0202434,-1000.0,-998.53515625,140.13671875,-1000.0,-973.6328125
1578459928.0202434,-1000.0,-999.0234375,515.625,-1000.0,-975.09765625
1578459928.0202434,-1000.0,-1000.0,364.74609375,-1000.0,-968.75
1578459928.0202434,-1000.0,-1000.0,3.90625,-1000.0,-962.40234375
1578459928.0202434,-1000.0,-970.21484375,-630.859375,-1000.0,-736.81640625
1578459928.0202434,-1000.0,-978.02734375,-285.15625,-1000.0,-687.98828125
1578459928.0202434,-1000.0,-1000.0,847.65625,-1000.0,-995.60546875
1578459928.0202434,-1000.0,-999.0234375,732.421875,-1000.0,-1000.0
1578459928.0202434,-1000.0,-1000.0,607.91015625,-1000.0,-990.234375
1578459928.0671184,-1000.0,-1000.0,974.609375,-1000.0,-1000.0
1578459928.0671184,-1000.0,-1000.0,-976.07421875,-1000.0,-1000.0
1578459928.0671184,-1000.0,-1000.0,723.14453125,-1000.0,-1000.0
1578459928.0671184,-1000.0,-1000.0,722.65625,-1000.0,-995.1171875
1578459928.0671184,-1000.0,-998.53515625,956.54296875,-1000.0,-994.62890625
1578459928.0671184,-1000.0,-1000.0,866.69921875,-1000.0,-1000.0
1578459928.0671184,-1000.0,-986.328125,-145.99609375,-1000.0,-1000.0
1578459928.0671184,-1000.0,-971.6796875,-385.7421875,-1000.0,-798.828125
1578459928.0671184,-1000.0,-1000.0,934.5703125,-1000.0,-826.66015625
1578459928.0671184,-1000.0,-1000.0,-963.37890625,-1000.0,-1000.0
1578459928.0671184,-1000.0,-999.51171875,740.234375,-1000.0,-988.76953125
1578459928.0671184,-1000.0,-1000.0,624.0234375,-1000.0,-993.1640625
1578459928.1139934,-1000.0,-1000.0,881.34765625,-1000.0,-1000.0
1578459928.1139934,-1000.0,-1000.0,920.8984375,-1000.0,-1000.0
1578459928.1139934,-1000.0,-1000.0,698.2421875,-1000.0,-998.046875
1578459928.1139934,-1000.0,-1000.0,903.80859375,-991.69921875,-1000.0
1578459928.1139934,-1000.0,-1000.0,961.42578125,-959.47265625,-988.28125
1578459928.1139934,-1000.0,-1000.0,307.6171875,-1000.0,-1000.0
1578459928.1139934,-1000.0,-1000.0,-769.04296875,-103.515625,-895.99609375
1578459928.1139934,-1000.0,-1000.0,-376.46484375,-970.703125,-792.96875
1578459928.1139934,-1000.0,-1000.0,606.4453125,948.2421875,-995.60546875
1578459928.1139934,-1000.0,-1000.0,-15.13671875,946.2890625,-1000.0
1578459928.1139934,-1000.0,-1000.0,-451.171875,974.609375,-991.69921875
1578459928.1139934,-1000.0,-1000.0,8.7890625,968.26171875,-1000.0
1578459928.1608684,-1000.0,-1000.0,-2.44140625,968.26171875,-1000.0
1578459928.1608684,-1000.0,-1000.0,-589.84375,968.26171875,-1000.0
1578459928.1608684,-1000.0,-1000.0,-1000.0,968.26171875,-999.0234375
1578459928.1608684,-1000.0,-1000.0,-707.51953125,968.26171875,-996.09375
1578459928.1608684,-1000.0,-1000.0,-720.703125,968.26171875,-997.55859375
1578459928.1608684,-1000.0,-1000.0,-1000.0,968.26171875,-1000.0
1578459928.1608684,-1000.0,-1000.0,-1000.0,968.26171875,-784.1796875
1578459928.1608684,-1000.0,-1000.0,-970.21484375,968.26171875,-785.64453125
1578459928.1608684,-1000.0,-1000.0,-978.515625,968.26171875,-1000.0
1578459928.1608684,-1000.0,-1000.0,-1000.0,968.26171875,-958.984375
1578459928.1608684,-1000.0,-1000.0,-1000.0,968.26171875,-908.203125
1578459928.1608684,-1000.0,-1000.0,-1000.0,968.26171875,-975.5859375
1578459928.2077434,-1000.0,-1000.0,-1000.0,968.26171875,-987.3046875
1578459928.2077434,-1000.0,-1000.0,-1000.0,968.26171875,-892.08984375
1578459928.2077434,-1000.0,-1000.0,-1000.0,968.26171875,-811.03515625
1578459928.2077434,-1000.0,-1000.0,-1000.0,968.26171875,-893.5546875
1578459928.2077434,-1000.0,-1000.0,-1000.0,968.26171875,-926.26953125
1578459928.2077434,-1000.0,-1000.0,-1000.0,968.26171875,-741.69921875
1578459928.2077434,-1000.0,-1000.0,-1000.0,968.26171875,-727.05078125
1578459928.2077434,-1000.0,-1000.0,-1000.0,968.26171875,-884.27734375
1578459928.2077434,-1000.0,-999.0234375,-1000.0,968.26171875,-920.41015625
1578459928.2077434,-1000.0,-999.51171875,-1000.0,968.26171875,-745.60546875
1578459928.2077434,-1000.0,-999.51171875,-1000.0,968.26171875,-703.61328125
1578459928.2077434,-1000.0,-992.1875,-1000.0,968.26171875,-906.73828125
1578459928.2546184,-1000.0,-993.1640625,-1000.0,968.26171875,-904.78515625
1578459928.2546184,-1000.0,-996.58203125,-1000.0,968.26171875,-850.09765625
1578459928.2546184,-1000.0,-994.62890625,-1000.0,968.26171875,-861.328125
1578459928.2546184,-1000.0,-998.046875,-1000.0,968.26171875,-915.0390625
1578459928.2546184,-1000.0,-1000.0,-1000.0,968.26171875,-885.7421875
1578459928.2546184,-1000.0,-1000.0,-1000.0,968.26171875,-753.41796875
1578459928.2546184,-1000.0,-1000.0,-1000.0,968.26171875,-805.6640625
1578459928.2546184,-1000.0,-1000.0,-985.3515625,967.7734375,-889.6484375
1578459928.2546184,-1000.0,-1000.0,-1000.0,968.75,-866.2109375
1578459928.2546184,-1000.0,-1000.0,-904.78515625,967.7734375,-666.015625
1578459928.2546184,-1000.0,-1000.0,-476.07421875,971.19140625,-728.02734375
1578459928.2546184,-1000.0,-996.58203125,-569.82421875,914.55078125,-965.33203125
1578459928.3014934,-1000.0,-999.0234375,-917.48046875,-960.44921875,-910.15625
1578459928.3014934,-1000.0,-993.1640625,-605.95703125,698.73046875,-883.30078125
1578459928.3014934,-1000.0,-918.45703125,-259.27734375,-774.90234375,-937.5
1578459928.3014934,-1000.0,-929.19921875,-531.73828125,-387.6953125,-968.75
1578459928.3014934,-1000.0,-1000.0,-963.37890625,-838.37890625,-890.625
1578459928.3014934,-1000.0,-972.65625,-987.3046875,307.12890625,-850.5859375
1578459928.3014934,-1000.0,-897.94921875,-975.09765625,-1000.0,-902.34375
1578459928.3014934,-1000.0,-892.08984375,-1000.0,-1000.0,-927.734375
1578459928.3014934,-1000.0,-964.35546875,-972.65625,178.22265625,-787.109375
1578459928.3014934,-1000.0,-994.62890625,-461.42578125,247.55859375,-701.171875
1578459928.3014934,-1000.0,-940.4296875,-423.33984375,-1000.0,-960.9375
1578459928.3014934,-1000.0,-907.2265625,-984.86328125,-1000.0,-1000.0
1578459928.3483684,-1000.0,-927.24609375,-751.953125,-890.625,-967.28515625
1578459928.3483684,-1000.0,-974.12109375,-140.13671875,-841.796875,-984.375
1578459928.3483684,-1000.0,-972.65625,-67.3828125,-995.1171875,-996.09375
1578459928.3483684,-1000.0,-939.453125,-570.3125,-1000.0,-999.51171875
1578459928.3483684,-1000.0,-936.03515625,-696.2890625,-992.67578125,-978.02734375
1578459928.3483684,-1000.0,-955.56640625,-785.15625,-1000.0,-885.7421875
1578459928.3483684,-1000.0,-949.70703125,-1000.0,-1000.0,-884.765625
1578459928.3483684,-1000.0,-944.3359375,-1000.0,-1000.0,-943.359375
1578459928.3483684,-1000.0,-969.23828125,-800.78125,-1000.0,-859.375
1578459928.3483684,-1000.0,-999.51171875,-73.73046875,-1000.0,-934.08203125
1578459928.3483684,-1000.0,-1000.0,58.59375,-1000.0,-997.0703125
1578459928.3483684,-1000.0,-982.421875,-380.37109375,-1000.0,-871.09375
1578459928.3952434,-1000.0,-987.79296875,-288.57421875,-1000.0,-874.51171875
1578459928.3952434,-1000.0,-992.1875,-467.7734375,-1000.0,-999.51171875
1578459928.3952434,-1000.0,-980.95703125,-676.7578125,-1000.0,-1000.0
1578459928.3952434,-1000.0,-977.5390625,-519.53125,-1000.0,-970.21484375
1578459928.3952434,-1000.0,-991.2109375,-374.0234375,-1000.0,-980.46875
1578459928.3952434,-1000.0,-978.515625,-777.34375,-1000.0,-970.21484375
1578459928.3952434,-1000.0,-974.609375,-1000.0,-1000.0,-1000.0
1578459928.3952434,-1000.0,-985.83984375,-1000.0,-1000.0,-854.00390625
1578459928.3952434,-1000.0,-990.72265625,-648.92578125,-1000.0,-736.81640625
1578459928.3952434,-1000.0,-1000.0,-87.890625,-1000.0,-981.4453125
1578459928.3952434,-1000.0,-981.93359375,-585.44921875,-1000.0,-1000.0
1578459928.3952434,-1000.0,-975.5859375,-740.234375,-1000.0,-988.76953125
1578459928.4421184,-1000.0,-1000.0,-141.11328125,-1000.0,-1000.0
1578459928.4421184,-1000.0,-1000.0,-23.4375,-1000.0,-987.79296875
1578459928.4421184,-1000.0,-985.3515625,-533.203125,-1000.0,-989.2578125
1578459928.4421184,-1000.0,-980.95703125,-718.26171875,-1000.0,-996.58203125
1578459928.4421184,-1000.0,-999.0234375,-644.04296875,-1000.0,-991.69921875
1578459928.4421184,-1000.0,-991.2109375,-935.05859375,-1000.0,-1000.0
1578459928.4421184,-1000.0,-992.1875,-1000.0,-1000.0,-994.62890625
1578459928.4421184,-1000.0,-1000.0,-808.59375,-1000.0,-771.484375
1578459928.4421184,-1000.0,-1000.0,-41.50390625,-1000.0,-831.0546875
1578459928.4421184,-1000.0,-1000.0,264.16015625,-1000.0,-1000.0
1578459928.4421184,-1000.0,-1000.0,-282.2265625,-1000.0,-990.72265625
1578459928.4421184,-1000.0,-1000.0,-207.03125,-1000.0,-996.09375
1578459928.4889934,-1000.0,-1000.0,298.828125,-1000.0,-1000.0
1578459928.4889934,-1000.0,-1000.0,110.3515625,-1000.0,-1000.0
1578459928.4889934,-1000.0,-1000.0,-325.68359375,-1000.0,-997.0703125
1578459928.4889934,-1000.0,-1000.0,-26.3671875,-1000.0,-998.046875
1578459928.4889934,-1000.0,-1000.0,284.66796875,-1000.0,-986.81640625
1578459928.4889934,-1000.0,-1000.0,-312.5,-1000.0,-1000.0
1578459928.4889934,-1000.0,-1000.0,-916.015625,-1000.0,-900.87890625
1578459928.4889934,-1000.0,-1000.0,-690.91796875,-1000.0,-806.640625
1578459928.4889934,-1000.0,-1000.0,307.6171875,-1000.0,-994.62890625
1578459928.4889934,-1000.0,-1000.0,387.6953125,-1000.0,-1000.0
1578459928.4889934,-1000.0,-1000.0,-235.3515625,-1000.0,-992.67578125
1578459928.4889934,-1000.0,-1000.0,95.703125,-1000.0,-1000.0
1578459928.5358684,-1000.0,-1000.0,655.76171875,-1000.0,-1000.0
1578459928.5358684,-1000.0,-1000.0,219.23828125,-1000.0,-1000.0
1578459928.5358684,-1000.0,-1000.0,-21.484375,-1000.0,-998.046875
1578459928.5358684,-1000.0,-1000.0,530.76171875,-1000.0,-996.58203125
1578459928.5358684,-1000.0,-1000.0,458.984375,-1000.0,-998.53515625
1578459928.5358684,-1000.0,-1000.0,-427.734375,-933.59375,-1000.0
1578459928.5358684,-1000.0,-1000.0,-842.7734375,-1000.0,-858.3984375
1578459928.5358684,-1000.0,-1000.0,183.10546875,-488.28125,-851.07421875
1578459928.5358684,-1000.0,-1000.0,481.93359375,-979.98046875,-1000.0
1578459928.5358684,-1000.0,-1000.0,-456.0546875,582.03125,-986.81640625
1578459928.5358684,-1000.0,-1000.0,-196.77734375,-885.25390625,-967.7734375
1578459928.5358684,-1000.0,-1000.0,793.45703125,-1000.0,-1000.0
1578459928.5827434,-1000.0,-1000.0,464.84375,443.84765625,-1000.0
1578459928.5827434,-1000.0,-1000.0,-159.66796875,424.8046875,-987.79296875
1578459928.5827434,-1000.0,-1000.0,126.46484375,-986.328125,-988.28125
1578459928.5827434,-1000.0,-999.0234375,612.79296875,-1000.0,-990.234375
1578459928.5827434,-1000.0,-1000.0,175.78125,-528.3203125,-1000.0
1578459928.5827434,-1000.0,-993.1640625,-679.19921875,-291.9921875,-880.37109375
1578459928.5827434,-1000.0,-952.63671875,-865.72265625,-999.51171875,-778.3203125
1578459928.5827434,-1000.0,-971.6796875,-76.66015625,-1000.0,-981.4453125
1578459928.5827434,-1000.0,-978.515625,-2.9296875,-974.12109375,-1000.0
1578459928.5827434,-1000.0,-943.359375,-846.19140625,-1000.0,-827.63671875
1578459928.5827434,-1000.0,-979.4921875,-224.609375,-1000.0,-808.59375
1578459928.5827434,-1000.0,-1000.0,437.98828125,-1000.0,-1000.0
1578459928.6296184,-1000.0,-980.46875,-369.62890625,-1000.0,-1000.0
1578459928.6296184,-1000.0,-974.12109375,-556.15234375,-1000.0,-967.7734375
1578459928.6296184,-1000.0,-998.046875,157.2265625,-1000.0,-971.19140625
1578459928.6296184,-1000.0,-1000.0,348.6328125,-1000.0,-1000.0
1578459928.6296184,-1000.0,-973.6328125,-280.2734375,-1000.0,-1000.0
1578459928.6296184,-1000.0,-953.125,-959.9609375,-1000.0,-895.5078125
1578459928.6296184,-1000.0,-970.703125,-877.9296875,-1000.0,-895.01953125
1578459928.6296184,-1000.0,-988.76953125,-320.3125,-1000.0,-1000.0
1578459928.6296184,-1000.0,-982.421875,-460.44921875,-1000.0,-985.3515625
1578459928.6296184,-1000.0,-977.05078125,-830.56640625,-1000.0,-788.0859375
1578459928.6296184,-1000.0,-1000.0,125.48828125,-1000.0,-879.39453125
1578459928.6296184,-1000.0,-1000.0,385.25390625,-1000.0,-1000.0
1578459928.6764934,-1000.0,-998.046875,-116.69921875,-1000.0,-925.29296875
1578459928.6764934,-1000.0,-999.0234375,39.0625,-1000.0,-911.1328125
1578459928.6764934,-1000.0,-1000.0,215.8203125,-1000.0,-1000.0
1578459928.6764934,-1000.0,-996.58203125,-391.6015625,-1000.0,-1000.0
1578459928.6764934,-1000.0,-985.83984375,-604.00390625,-1000.0,-963.37890625
1578459928.6764934,-1000.0,-991.69921875,-612.3046875,-1000.0,-908.203125
1578459928.6764934,-1000.0,-990.72265625,-785.15625,-1000.0,-940.91796875
1578459928.6764934,-1000.0,-973.6328125,-717.7734375,-1000.0,-1000.0
1578459928.6764934,-1000.0,-973.6328125,-929.19921875,-1000.0,-856.4453125
1578459928.6764934,-1000.0,-995.1171875,-370.60546875,-1000.0,-729.98046875
1578459928.6764934,-1000.0,-1000.0,562.98828125,-1000.0,-985.83984375
1578459928.6764934,-1000.0,-999.0234375,-47.8515625,-1000.0,-1000.0
1578459928.7233684,-1000.0,-1000.0,-416.015625,-1000.0,-988.76953125
1578459928.7233684,-1000.0,-1000.0,302.734375,-1000.0,-1000.0
1578459928.7233684,-1000.0,-1000.0,399.90234375,-1000.0,-1000.0
1578459928.7233684,-1000.0,-992.67578125,-260.25390625,-1000.0,-979.4921875
1578459928.7233684,-1000.0,-990.72265625,-544.921875,-1000.0,-964.84375
1578459928.7233684,-1000.0,-996.58203125,-569.82421875,-1000.0,-975.5859375
1578459928.7233684,-1000.0,-992.1875,-765.625,-1000.0,-991.2109375
1578459928.7233684,-1000.0,-996.58203125,-951.66015625,-1000.0,-1000.0
1578459928.7233684,-1000.0,-1000.0,-734.86328125,-1000.0,-788.0859375
1578459928.7233684,-1000.0,-1000.0,230.95703125,-1000.0,-835.44921875
1578459928.7233684,-1000.0,-1000.0,362.79296875,-1000.0,-1000.0
1578459928.7233684,-1000.0,-1000.0,-190.4296875,-1000.0,-984.375
1578459928.7702434,-1000.0,-1000.0,-44.921875,-1000.0,-987.3046875
1578459928.7702434,-1000.0,-1000.0,463.8671875,-1000.0,-1000.0
1578459928.7702434,-1000.0,-1000.0,151.3671875,-1000.0,-1000.0
1578459928.7702434,-1000.0,-997.0703125,-416.50390625,-1000.0,-984.86328125
1578459928.7702434,-1000.0,-999.51171875,-100.5859375,-1000.0,-986.328125
1578459928.7702434,-1000.0,-1000.0,-276.85546875,-1000.0,-988.76953125
1578459928.7702434,-1000.0,-999.0234375,-759.27734375,-1000.0,-1000.0
1578459928.7702434,-1000.0,-993.65234375,-923.33984375,-1000.0,-839.84375
1578459928.7702434,-1000.0,-996.09375,-791.015625,-1000.0,-716.30859375
1578459928.7702434,-1000.0,-1000.0,-15.625,-1000.0,-989.74609375
1578459928.7702434,-1000.0,-999.51171875,84.9609375,-1000.0,-1000.0
1578459928.7702434,-1000.0,-999.51171875,-220.21484375,-1000.0,-988.76953125
1578459928.8171184,-1000.0,-1000.0,184.5703125,-1000.0,-1000.0
1578459928.8171184,-1000.0,-1000.0,371.09375,-1000.0,-1000.0
1578459928.8171184,-1000.0,-997.0703125,-115.234375,-1000.0,-999.51171875
1578459928.8171184,-1000.0,-995.60546875,-303.7109375,-1000.0,-991.69921875
1578459928.8171184,-1000.0,-1000.0,179.19921875,-1000.0,-990.72265625
1578459928.8171184,-1000.0,-995.60546875,-469.23828125,-1000.0,-1000.0
1578459928.8171184,-1000.0,-993.1640625,-1000.0,-1000.0,-986.81640625
1578459928.8171184,-1000.0,-1000.0,-735.83984375,-1000.0,-734.375
1578459928.8171184,-1000.0,-1000.0,143.5546875,-1000.0,-762.6953125
1578459928.8171184,-1000.0,-1000.0,377.44140625,-1000.0,-989.74609375
1578459928.8171184,-1000.0,-997.0703125,-153.80859375,-1000.0,-990.234375
1578459928.8171184,-1000.0,-998.53515625,-438.96484375,-1000.0,-987.3046875
1578459928.8639934,-1000.0,-1000.0,-21.484375,-1000.0,-999.51171875
1578459928.8639934,-1000.0,-1000.0,139.16015625,-1000.0,-1000.0
1578459928.8639934,-1000.0,-996.58203125,-322.75390625,-1000.0,-978.515625
1578459928.8639934,-1000.0,-999.0234375,-55.6640625,-1000.0,-974.609375
1578459928.8639934,-1000.0,-1000.0,134.27734375,-1000.0,-994.62890625
1578459928.8639934,-1000.0,-996.09375,-541.9921875,-1000.0,-1000.0
1578459928.8639934,-1000.0,-996.09375,-1000.0,-1000.0,-823.2421875
1578459928.8639934,-1000.0,-1000.0,-445.80078125,-1000.0,-714.84375
1578459928.8639934,-1000.0,-1000.0,391.11328125,-1000.0,-972.65625
1578459928.8639934,-1000.0,-995.1171875,-104.4921875,-1000.0,-1000.0
1578459928.8639934,-1000.0,-987.79296875,-467.28515625,-1000.0,-985.83984375
1578459928.8639934,-1000.0,-999.0234375,132.8125,-1000.0,-987.3046875
1578459928.9108684,-1000.0,-1000.0,402.83203125,-1000.0,-993.65234375
1578459928.9108684,-1000.0,-987.3046875,-293.9453125,-1000.0,-1000.0
1578459928.9108684,-1000.0,-979.00390625,-925.78125,-1000.0,-992.67578125
1578459928.9108684,-1000.0,-1000.0,-178.22265625,-1000.0,-992.67578125
1578459928.9108684,-1000.0,-1000.0,221.19140625,-1000.0,-1000.0
1578459928.9108684,-1000.0,-998.53515625,-533.203125,-1000.0,-1000.0
1578459928.9108684,-1000.0,-996.58203125,-1000.0,-1000.0,-727.5390625
1578459928.9108684,-1000.0,-998.046875,-401.85546875,-1000.0,-770.01953125
1578459928.9108684,-1000.0,-1000.0,246.09375,-1000.0,-1000.0
1578459928.9108684,-1000.0,-991.2109375,-455.56640625,-1000.0,-981.93359375
1578459928.9108684,-1000.0,-990.234375,-787.59765625,-1000.0,-975.09765625
1578459928.9108684,-1000.0,-1000.0,-260.25390625,-1000.0,-998.53515625
1578459928.9577434,-1000.0,-1000.0,4.39453125,-1000.0,-1000.0
1578459928.9577434,-1000.0,-997.55859375,-323.73046875,-1000.0,-969.7265625
1578459928.9577434,-1000.0,-999.0234375,-235.83984375,-1000.0,-946.2890625
1578459928.9577434,-1000.0,-1000.0,77.63671875,-1000.0,-992.67578125
1578459928.9577434,-1000.0,-1000.0,-250.0,-1000.0,-1000.0
1578459928.9577434,-1000.0,-997.0703125,-809.5703125,-1000.0,-902.34375
1578459928.9577434,-1000.0,-991.69921875,-1000.0,-1000.0,-809.5703125
1578459928.9577434,-1000.0,-994.140625,-833.49609375,-1000.0,-956.0546875
1578459928.9577434,-1000.0,-994.62890625,-537.109375,-1000.0,-1000.0
1578459928.9577434,-1000.0,-990.234375,-899.90234375,-1000.0,-868.1640625
1578459928.9577434,-1000.0,-999.51171875,-478.02734375,-1000.0,-833.984375
1578459928.9577434,-1000.0,-1000.0,376.46484375,-1000.0,-1000.0
1578459929.0046184,-1000.0,-999.51171875,-172.36328125,-1000.0,-1000.0
1578459929.0046184,-1000.0,-1000.0,-478.515625,-986.81640625,-988.28125
1578459929.0046184,-1000.0,-1000.0,78.125,-1000.0,-994.62890625
1578459929.0046184,-1000.0,-1000.0,202.1484375,-791.9921875,-1000.0
1578459929.0046184,-1000.0,-1000.0,-397.4609375,-734.86328125,-995.1171875
1578459929.0046184,-1000.0,-1000.0,-1000.0,-989.74609375,-936.5234375
1578459929.0046184,-1000.0,-997.55859375,-817.87109375,-1000.0,-916.9921875
1578459929.0046184,-1000.0,-998.53515625,-647.94921875,-607.421875,-979.00390625
1578459929.0046184,-1000.0,-1000.0,-955.56640625,-334.47265625,-1000.0
1578459929.0046184,-1000.0,-1000.0,-753.41796875,-984.375,-756.8359375
1578459929.0046184,-1000.0,-1000.0,241.2109375,-1000.0,-818.359375
1578459929.0046184,-1000.0,-1000.0,231.4453125,-885.25390625,-1000.0
1578459929.0514934,-1000.0,-1000.0,-420.41015625,-737.79296875,-974.12109375
1578459929.0514934,-1000.0,-1000.0,-89.84375,-966.30859375,-972.65625
1578459929.0514934,-1000.0,-1000.0,367.1875,-1000.0,-1000.0
1578459929.0514934,-1000.0,-1000.0,85.9375,-986.328125,-1000.0
1578459929.0514934,-1000.0,-990.234375,-608.3984375,-1000.0,-964.35546875
1578459929.0514934,-1000.0,-988.28125,-850.5859375,-1000.0,-908.203125
1578459929.0514934,-1000.0,-1000.0,-706.0546875,-1000.0,-949.70703125
1578459929.0514934,-1000.0,-989.2578125,-794.921875,-1000.0,-1000.0
1578459929.0514934,-1000.0,-986.328125,-639.6484375,-1000.0,-791.015625
1578459929.0514934,-1000.0,-1000.0,-47.36328125,-1000.0,-708.49609375
1578459929.0514934,-1000.0,-1000.0,-190.91796875,-1000.0,-985.3515625
1578459929.0514934,-1000.0,-992.67578125,-768.06640625,-1000.0,-1000.0
1578459929.0983684,-1000.0,-989.74609375,-964.84375,-1000.0,-984.86328125
1578459929.0983684,-1000.0,-1000.0,-292.96875,-1000.0,-999.51171875
1578459929.0983684,-1000.0,-1000.0,337.890625,-1000.0,-999.51171875
1578459929.0983684,-1000.0,-997.55859375,-252.44140625,-1000.0,-1000.0
1578459929.0983684,-1000.0,-997.55859375,-437.5,-1000.0,-957.51953125
1578459929.0983684,-1000.0,-1000.0,-443.84765625,-1000.0,-917.96875
1578459929.0983684,-1000.0,-1000.0,-809.5703125,-1000.0,-970.703125
1578459929.0983684,-1000.0,-993.1640625,-930.17578125,-1000.0,-948.73046875
1578459929.0983684,-1000.0,-994.62890625,-756.34765625,-1000.0,-907.71484375
1578459929.0983684,-1000.0,-1000.0,104.00390625,-1000.0,-989.2578125
1578459929.0983684,-1000.0,-1000.0,300.78125,-1000.0,-980.95703125
1578459929.0983684,-1000.0,-1000.0,-143.5546875,-1000.0,-877.9296875
1578459929.1452434,-1000.0,-1000.0,-148.4375,-1000.0,-719.23828125
1578459929.1452434,-1000.0,-1000.0,-294.43359375,-1000.0,-865.234375
1578459929.1452434,-1000.0,-1000.0,-352.05078125,-1000.0,-1000.0
1578459929.1452434,-1000.0,-997.55859375,-307.6171875,-1000.0,-963.8671875
1578459929.1452434,-1000.0,-1000.0,-104.98046875,-1000.0,-976.07421875
1578459929.1452434,-1000.0,-999.51171875,-451.66015625,-1000.0,-971.6796875
1578459929.1452434,-1000.0,-997.0703125,-904.78515625,-1000.0,-975.09765625
1578459929.1452434,-1000.0,-999.0234375,-1000.0,-1000.0,-827.1484375
1578459929.1452434,-1000.0,-1000.0,-440.4296875,-1000.0,-721.19140625
1578459929.1452434,-1000.0,-1000.0,462.890625,-1000.0,-969.23828125
1578459929.1452434,-1000.0,-999.0234375,-133.30078125,-1000.0,-1000.0
1578459929.1452434,-1000.0,-997.55859375,-486.81640625,-1000.0,-985.3515625
1578459929.1921184,-1000.0,-1000.0,239.74609375,-1000.0,-1000.0
1578459929.1921184,-1000.0,-1000.0,395.5078125,-1000.0,-970.21484375
1578459929.1921184,-1000.0,-995.60546875,-234.86328125,-1000.0,-981.4453125
1578459929.1921184,-1000.0,-992.67578125,-721.6796875,-1000.0,-988.76953125
1578459929.1921184,-1000.0,-1000.0,-452.1484375,-1000.0,-988.76953125
1578459929.1921184,-1000.0,-1000.0,-569.82421875,-1000.0,-998.046875
1578459929.1921184,-1000.0,-1000.0,-973.6328125,-1000.0,-1000.0
1578459929.1921184,-1000.0,-1000.0,-807.12890625,-1000.0,-758.30078125
1578459929.1921184,-1000.0,-1000.0,77.63671875,-1000.0,-791.9921875
1578459929.1921184,-1000.0,-1000.0,472.16796875,-1000.0,-1000.0
1578459929.1921184,-1000.0,-1000.0,-122.55859375,-1000.0,-981.93359375
1578459929.1921184,-1000.0,-1000.0,-93.26171875,-1000.0,-974.609375
1578459929.2389934,-1000.0,-1000.0,362.3046875,-1000.0,-1000.0
1578459929.2389934,-1000.0,-1000.0,147.4609375,-1000.0,-1000.0
1578459929.2389934,-1000.0,-1000.0,-310.05859375,-1000.0,-974.12109375
1578459929.2389934,-1000.0,-1000.0,-100.5859375,-1000.0,-963.37890625
1578459929.2389934,-1000.0,-1000.0,193.359375,-1000.0,-993.65234375
1578459929.2389934,-1000.0,-999.51171875,-437.5,-1000.0,-995.60546875
1578459929.2389934,-1000.0,-999.0234375,-995.1171875,-1000.0,-798.33984375
1578459929.2389934,-1000.0,-1000.0,-842.28515625,-1000.0,-709.9609375
1578459929.2389934,-1000.0,-1000.0,-7.8125,-1000.0,-967.28515625
1578459929.2389934,-1000.0,-997.55859375,66.40625,-1000.0,-1000.0
1578459929.2389934,-1000.0,-991.69921875,-484.86328125,-1000.0,-982.421875
1578459929.2389934,-1000.0,-999.0234375,-17.578125,-1000.0,-998.53515625
1578459929.2858684,-1000.0,-1000.0,364.74609375,-1000.0,-1000.0
1578459929.2858684,-1000.0,-992.1875,-207.51953125,-1000.0,-1000.0
1578459929.2858684,-1000.0,-989.2578125,-444.82421875,-1000.0,-989.2578125
1578459929.2858684,-1000.0,-1000.0,103.02734375,-1000.0,-990.234375
1578459929.2858684,-1000.0,-1000.0,4.8828125,-1000.0,-1000.0
1578459929.2858684,-1000.0,-1000.0,-652.83203125,-1000.0,-995.60546875
1578459929.2858684,-1000.0,-1000.0,-970.703125,-1000.0,-734.86328125
1578459929.2858684,-1000.0,-1000.0,-140.13671875,-1000.0,-756.34765625
1578459929.2858684,-1000.0,-1000.0,222.16796875,-1000.0,-1000.0
1578459929.2858684,-1000.0,-1000.0,-565.91796875,-1000.0,-981.4453125
1578459929.2858684,-1000.0,-1000.0,-394.53125,-1000.0,-949.70703125
1578459929.2858684,-1000.0,-1000.0,370.60546875,-1000.0,-995.60546875
1578459929.3327434,-1000.0,-1000.0,140.13671875,-1000.0,-1000.0
1578459929.3327434,-1000.0,-992.67578125,-437.5,-1000.0,-965.8203125
1578459929.3327434,-1000.0,-995.1171875,-222.16796875,-1000.0,-952.63671875
1578459929.3327434,-1000.0,-1000.0,259.765625,-1000.0,-991.69921875
1578459929.3327434,-1000.0,-1000.0,-68.359375,-1000.0,-1000.0
1578459929.3327434,-1000.0,-995.1171875,-805.6640625,-1000.0,-871.09375
1578459929.3327434,-1000.0,-985.83984375,-1000.0,-1000.0,-715.8203125
1578459929.3327434,-1000.0,-997.0703125,-256.8359375,-1000.0,-935.05859375
1578459929.3327434,-1000.0,-997.0703125,-115.234375,-1000.0,-1000.0
1578459929.3327434,-1000.0,-983.88671875,-842.7734375,-1000.0,-840.8203125
1578459929.3327434,-1000.0,-997.55859375,-398.4375,-1000.0,-833.984375
1578459929.3327434,-1000.0,-1000.0,-27.34375,-1000.0,-1000.0
1578459929.3796184,-1000.0,-996.09375,-579.1015625,-1000.0,-998.53515625
1578459929.3796184,-1000.0,-995.60546875,-546.875,-1000.0,-981.93359375
1578459929.3796184,-1000.0,-1000.0,127.9296875,-1000.0,-986.81640625
1578459929.3796184,-1000.0,-1000.0,327.63671875,-1000.0,-1000.0
1578459929.3796184,-1000.0,-990.72265625,-291.50390625,-1000.0,-1000.0
1578459929.3796184,-1000.0,-979.00390625,-992.67578125,-1000.0,-901.3671875
1578459929.3796184,-1000.0,-991.69921875,-940.4296875,-1000.0,-902.34375
1578459929.3796184,-1000.0,-1000.0,-271.484375,-1000.0,-1000.0
1578459929.3796184,-1000.0,-992.67578125,-416.015625,-1000.0,-994.140625
1578459929.3796184,-1000.0,-992.1875,-849.12109375,-1000.0,-807.6171875
1578459929.3796184,-1000.0,-1000.0,102.05078125,-1000.0,-883.30078125
1578459929.3796184,-1000.0,-1000.0,340.8203125,-1000.0,-1000.0
1578459929.4264934,-1000.0,-1000.0,-176.7578125,-1000.0,-922.8515625
1578459929.4264934,-1000.0,-1000.0,-20.01953125,-1000.0,-918.9453125
1578459929.4264934,-1000.0,-1000.0,131.34765625,-1000.0,-1000.0
1578459929.4264934,-1000.0,-1000.0,-482.91015625,-1000.0,-1000.0
1578459929.4264934,-1000.0,-996.58203125,-591.796875,-1000.0,-963.8671875
1578459929.4264934,-1000.0,-1000.0,-540.52734375,-1000.0,-948.73046875
1578459929.4264934,-1000.0,-999.51171875,-834.47265625,-1000.0,-979.98046875
1578459929.4264934,-1000.0,-985.3515625,-802.734375,-1000.0,-1000.0
1578459929.4264934,-1000.0,-987.79296875,-930.17578125,-1000.0,-863.76953125
1578459929.4264934,-1000.0,-1000.0,-422.36328125,-1000.0,-738.76953125
1578459929.4264934,-1000.0,-1000.0,503.41796875,-1000.0,-982.91015625
1578459929.4264934,-1000.0,-1000.0,-73.73046875,-1000.0,-1000.0
1578459929.4733684,-1000.0,-1000.0,-469.7265625,-1000.0,-986.81640625
1578459929.4733684,-1000.0,-1000.0,234.86328125,-1000.0,-999.51171875
1578459929.4733684,-1000.0,-1000.0,358.88671875,-1000.0,-1000.0
1578459929.4733684,-1000.0,-998.53515625,-283.203125,-1000.0,-995.1171875
1578459929.4733684,-1000.0,-998.046875,-611.328125,-1000.0,-976.07421875
1578459929.4733684,-1000.0,-1000.0,-649.90234375,-1000.0,-985.3515625
1578459929.4733684,-1000.0,-998.53515625,-843.75,-1000.0,-992.67578125
1578459929.4733684,-1000.0,-999.0234375,-995.1171875,-1000.0,-1000.0
1578459929.4733684,-1000.0,-1000.0,-762.6953125,-1000.0,-767.578125
1578459929.4733684,-1000.0,-1000.0,107.91015625,-1000.0,-803.22265625
1578459929.4733684,-1000.0,-1000.0,259.27734375,-1000.0,-1000.0
1578459929.4733684,-1000.0,-1000.0,-286.1328125,-1000.0,-978.515625
1578459929.5202434,-1000.0,-1000.0,-177.734375,-1000.0,-972.16796875
1578459929.5202434,-1000.0,-1000.0,350.09765625,-1000.0,-1000.0
1578459929.5202434,-1000.0,-1000.0,31.25,-1000.0,-1000.0
1578459929.5202434,-1000.0,-998.53515625,-500.48828125,-1000.0,-976.5625
1578459929.5202434,-1000.0,-999.51171875,-234.86328125,-1000.0,-972.65625
1578459929.5202434,-1000.0,-1000.0,-477.5390625,-1000.0,-951.66015625
1578459929.5202434,-1000.0,-998.53515625,-886.23046875,-1000.0,-987.79296875
1578459929.5202434,-1000.0,-995.60546875,-943.84765625,-1000.0,-801.7578125
1578459929.5202434,-1000.0,-999.0234375,-878.41796875,-1000.0,-680.17578125
1578459929.5202434,-1000.0,-1000.0,-58.10546875,-1000.0,-972.16796875
1578459929.5202434,-1000.0,-1000.0,35.64453125,-1000.0,-1000.0
1578459929.5202434,-1000.0,-1000.0,-364.74609375,-1000.0,-983.88671875
1578459929.5671184,-1000.0,-1000.0,48.33984375,-1000.0,-999.0234375
1578459929.5671184,-1000.0,-1000.0,263.18359375,-1000.0,-1000.0
1578459929.5671184,-1000.0,-996.09375,-225.09765625,-1000.0,-999.0234375
1578459929.5671184,-1000.0,-994.140625,-458.0078125,-1000.0,-983.3984375
1578459929.5671184,-1000.0,-1000.0,97.16796875,-1000.0,-991.69921875
1578459929.5671184,-1000.0,-995.60546875,-519.53125,-1000.0,-996.09375
1578459929.5671184,-1000.0,-993.1640625,-1000.0,-1000.0,-958.49609375
1578459929.5671184,-1000.0,-1000.0,-758.30078125,-1000.0,-723.14453125
1578459929.5671184,-1000.0,-1000.0,62.01171875,-1000.0,-743.1640625
1578459929.5671184,-1000.0,-1000.0,359.86328125,-1000.0,-994.140625
1578459929.5671184,-1000.0,-999.0234375,-257.32421875,-1000.0,-990.72265625
1578459929.5671184,-1000.0,-999.51171875,-602.05078125,-1000.0,-974.609375
1578459929.6139934,-1000.0,-1000.0,10.7421875,-1000.0,-999.51171875
1578459929.6139934,-1000.0,-1000.0,170.41015625,-1000.0,-1000.0
1578459929.6139934,-1000.0,-999.51171875,-330.078125,-1000.0,-974.12109375
1578459929.6139934,-1000.0,-1000.0,-65.91796875,-1000.0,-965.33203125
1578459929.6139934,-1000.0,-1000.0,152.83203125,-1000.0,-998.046875
1578459929.6139934,-1000.0,-999.51171875,-521.484375,-1000.0,-998.53515625
1578459929.6139934,-1000.0,-999.51171875,-1000.0,-1000.0,-829.1015625
1578459929.6139934,-1000.0,-1000.0,-466.30859375,-1000.0,-724.12109375
1578459929.6139934,-1000.0,-1000.0,395.01953125,-1000.0,-958.49609375
1578459929.6139934,-1000.0,-998.046875,-50.78125,-1000.0,-1000.0
1578459929.6139934,-1000.0,-993.65234375,-441.40625,-1000.0,-982.91015625
1578459929.6139934,-1000.0,-999.51171875,132.8125,-1000.0,-981.93359375
1578459929.6608684,-1000.0,-1000.0,406.25,-1000.0,-992.67578125
1578459929.6608684,-1000.0,-992.67578125,-284.1796875,-1000.0,-1000.0
1578459929.6608684,-1000.0,-987.79296875,-900.87890625,-1000.0,-995.60546875
1578459929.6608684,-1000.0,-1000.0,-143.06640625,-1000.0,-994.140625
1578459929.6608684,-1000.0,-1000.0,167.96875,-1000.0,-998.53515625
1578459929.6608684,-1000.0,-999.0234375,-632.32421875,-1000.0,-1000.0
1578459929.6608684,-1000.0,-998.53515625,-1000.0,-1000.0,-724.12109375
1578459929.6608684,-1000.0,-999.51171875,-270.5078125,-1000.0,-749.51171875
1578459929.6608684,-1000.0,-1000.0,323.73046875,-1000.0,-1000.0
1578459929.6608684,-1000.0,-991.2109375,-420.41015625,-1000.0,-988.76953125
1578459929.6608684,-1000.0,-991.2109375,-564.94140625,-1000.0,-987.3046875
1578459929.6608684,-1000.0,-1000.0,94.23828125,-1000.0,-997.0703125
1578459929.7077434,-1000.0,-1000.0,83.0078125,-1000.0,-1000.0
1578459929.7077434,-1000.0,-997.0703125,-351.5625,-1000.0,-969.7265625
1578459929.7077434,-1000.0,-999.0234375,-241.69921875,-1000.0,-932.12890625
1578459929.7077434,-1000.0,-1000.0,36.1328125,-1000.0,-984.375
1578459929.7077434,-1000.0,-1000.0,-305.17578125,-1000.0,-1000.0
1578459929.7077434,-1000.0,-997.55859375,-809.5703125,-1000.0,-900.87890625
1578459929.7077434,-1000.0,-993.1640625,-998.53515625,-1000.0,-789.0625
1578459929.7077434,-1000.0,-993.65234375,-839.35546875,-1000.0,-978.02734375
1578459929.7077434,-1000.0,-994.62890625,-544.921875,-1000.0,-1000.0
1578459929.7077434,-1000.0,-989.2578125,-895.5078125,-1000.0,-917.96875
1578459929.7077434,-1000.0,-998.53515625,-497.0703125,-1000.0,-925.78125
1578459929.7077434,-1000.0,-1000.0,379.39453125,-1000.0,-1000.0
1578459929.7546184,-1000.0,-999.51171875,-163.57421875,-1000.0,-998.046875
1578459929.7546184,-1000.0,-1000.0,-520.01953125,-1000.0,-996.58203125
1578459929.7546184,-1000.0,-1000.0,41.50390625,-1000.0,-997.55859375
1578459929.7546184,-1000.0,-1000.0,220.21484375,-1000.0,-1000.0
1578459929.7546184,-1000.0,-995.1171875,-366.2109375,-1000.0,-1000.0
1578459929.7546184,-1000.0,-992.67578125,-1000.0,-1000.0,-949.70703125
1578459929.7546184,-1000.0,-996.58203125,-854.98046875,-1000.0,-932.6171875
1578459929.7546184,-1000.0,-998.046875,-665.52734375,-1000.0,-995.1171875
1578459929.7546184,-1000.0,-997.0703125,-952.63671875,-1000.0,-1000.0
1578459929.7546184,-1000.0,-997.55859375,-750.48828125,-1000.0,-775.390625
1578459929.7546184,-1000.0,-1000.0,173.828125,-1000.0,-825.68359375
1578459929.7546184,-1000.0,-1000.0,-230.95703125,-1000.0,-1000.0
1578459929.8014934,-1000.0,-999.0234375,-676.7578125,-1000.0,-983.3984375
1578459929.8014934,-1000.0,-1000.0,-19.53125,-1000.0,-986.328125
1578459929.8014934,-1000.0,-1000.0,385.25390625,-1000.0,-1000.0
1578459929.8014934,-1000.0,-1000.0,152.83203125,-1000.0,-1000.0
1578459929.8014934,-1000.0,-1000.0,-553.22265625,-1000.0,-980.46875
1578459929.8014934,-1000.0,-998.53515625,-791.50390625,-1000.0,-946.2890625
1578459929.8014934,-1000.0,-1000.0,-709.47265625,-1000.0,-980.46875
1578459929.8014934,-1000.0,-996.58203125,-682.6171875,-1000.0,-1000.0
1578459929.8014934,-1000.0,-992.67578125,-921.875,-1000.0,-813.4765625
1578459929.8014934,-1000.0,-1000.0,-497.0703125,-1000.0,-752.9296875
1578459929.8014934,-1000.0,-1000.0,-48.828125,-1000.0,-989.74609375
1578459929.8014934,-1000.0,-997.0703125,-570.80078125,-1000.0,-1000.0
1578459929.8483684,-1000.0,-995.1171875,-399.4140625,-1000.0,-989.2578125
1578459929.8483684,-1000.0,-1000.0,249.51171875,-1000.0,-1000.0
1578459929.8483684,-1000.0,-1000.0,367.1875,-1000.0,-1000.0
1578459929.8483684,-1000.0,-1000.0,-197.75390625,-1000.0,-999.51171875
1578459929.8483684,-1000.0,-1000.0,-441.89453125,-1000.0,-995.1171875
1578459929.8483684,-1000.0,-1000.0,-509.27734375,-1000.0,-977.05078125
1578459929.8483684,-1000.0,-1000.0,-757.32421875,-1000.0,-985.3515625
1578459929.8483684,-1000.0,-993.65234375,-864.2578125,-1000.0,-1000.0
1578459929.8483684,-1000.0,-994.62890625,-774.4140625,-1000.0,-787.59765625
1578459929.8483684,-1000.0,-1000.0,114.2578125,-1000.0,-815.4296875
1578459929.8483684,-1000.0,-1000.0,349.609375,-1000.0,-1000.0
1578459929.8483684,-1000.0,-1000.0,-129.8828125,-1000.0,-979.00390625
1578459929.8952434,-1000.0,-1000.0,-131.34765625,-1000.0,-974.12109375
1578459929.8952434,-1000.0,-1000.0,-225.5859375,-1000.0,-1000.0
1578459929.8952434,-1000.0,-1000.0,-286.1328125,-1000.0,-1000.0
1578459929.8952434,-1000.0,-999.51171875,-269.53125,-1000.0,-978.02734375
1578459929.8952434,-1000.0,-1000.0,-87.890625,-1000.0,-979.00390625
1578459929.8952434,-1000.0,-1000.0,-404.296875,-1000.0,-978.02734375
1578459929.8952434,-1000.0,-998.53515625,-837.890625,-1000.0,-987.3046875
1578459929.8952434,-1000.0,-998.53515625,-1000.0,-1000.0,-845.21484375
1578459929.8952434,-1000.0,-1000.0,-478.02734375,-1000.0,-747.0703125
1578459929.8952434,-1000.0,-1000.0,404.296875,-1000.0,-977.05078125
1578459929.8952434,-1000.0,-1000.0,-166.015625,-1000.0,-1000.0
1578459929.8952434,-1000.0,-999.0234375,-524.4140625,-1000.0,-987.3046875
1578459929.9421184,-1000.0,-1000.0,129.8828125,-1000.0,-1000.0
1578459929.9421184,-1000.0,-1000.0,291.015625,-1000.0,-1000.0
1578459929.9421184,-1000.0,-995.1171875,-314.94140625,-1000.0,-999.51171875
1578459929.9421184,-1000.0,-991.69921875,-873.046875,-1000.0,-988.28125
1578459929.9421184,-1000.0,-1000.0,-598.6328125,-1000.0,-992.67578125
1578459929.9421184,-1000.0,-999.51171875,-694.3359375,-1000.0,-995.60546875
1578459929.9421184,-1000.0,-997.55859375,-1000.0,-1000.0,-1000.0
1578459929.9421184,-1000.0,-1000.0,-866.69921875,-1000.0,-766.6015625
1578459929.9421184,-1000.0,-1000.0,-118.1640625,-1000.0,-784.1796875
1578459929.9421184,-1000.0,-1000.0,290.0390625,-1000.0,-1000.0
1578459929.9421184,-1000.0,-999.51171875,-321.2890625,-1000.0,-983.3984375
1578459929.9421184,-1000.0,-1000.0,-321.2890625,-1000.0,-974.609375
1578459929.9889934,-1000.0,-1000.0,128.41796875,-1000.0,-999.0234375
1578459929.9889934,-1000.0,-1000.0,-73.73046875,-1000.0,-1000.0
1578459929.9889934,-1000.0,-998.046875,-487.79296875,-1000.0,-978.515625
1578459929.9889934,-1000.0,-999.51171875,-270.5078125,-1000.0,-929.6875
1578459929.9889934,-1000.0,-1000.0,-56.640625,-1000.0,-933.10546875
1578459929.9889934,-1000.0,-998.53515625,-694.82421875,-1000.0,-1000.0
1578459929.9889934,-1000.0,-998.53515625,-1000.0,-1000.0,-860.83984375
1578459929.9889934,-1000.0,-999.51171875,-1000.0,-1000.0,-734.86328125
1578459929.9889934,-1000.0,-1000.0,-463.8671875,-1000.0,-961.9140625
1578459929.9889934,-1000.0,-998.046875,-160.15625,-1000.0,-1000.0
1578459929.9889934,-1000.0,-993.65234375,-579.1015625,-1000.0,-977.5390625
1578459929.9889934,-1000.0,-999.51171875,-169.921875,-1000.0,-995.1171875
1578459930.0358684,-1000.0,-1000.0,213.8671875,-1000.0,-1000.0
1578459930.0358684,-1000.0,-995.60546875,-326.66015625,-1000.0,-1000.0
1578459930.0358684,-1000.0,-993.65234375,-563.96484375,-1000.0,-985.3515625
1578459930.0358684,-1000.0,-1000.0,-76.171875,-1000.0,-987.79296875
1578459930.0358684,-1000.0,-1000.0,-145.5078125,-1000.0,-1000.0
1578459930.0358684,-1000.0,-1000.0,-681.15234375,-1000.0,-1000.0
1578459930.0358684,-1000.0,-1000.0,-1000.0,-1000.0,-787.59765625
1578459930.0358684,-1000.0,-1000.0,-398.4375,-1000.0,-791.015625
1578459930.0358684,-1000.0,-1000.0,6.8359375,-1000.0,-1000.0
1578459930.0358684,-1000.0,-1000.0,-724.609375,-1000.0,-984.375
1578459930.0358684,-1000.0,-1000.0,-639.6484375,-1000.0,-953.61328125
1578459930.0358684,-1000.0,-1000.0,174.31640625,-1000.0,-994.140625
1578459930.0827434,-1000.0,-1000.0,27.83203125,-1000.0,-1000.0
1578459930.0827434,-1000.0,-997.55859375,-526.3671875,-1000.0,-969.23828125
1578459930.0827434,-1000.0,-999.0234375,-303.22265625,-1000.0,-957.03125
1578459930.0827434,-1000.0,-1000.0,154.78515625,-1000.0,-993.65234375
1578459930.0827434,-1000.0,-1000.0,-141.6015625,-1000.0,-1000.0
1578459930.0827434,-1000.0,-1000.0,-841.30859375,-1000.0,-898.4375
1578459930.0827434,-1000.0,-997.0703125,-1000.0,-1000.0,-795.41015625
1578459930.0827434,-1000.0,-1000.0,-261.23046875,-1000.0,-961.9140625
1578459930.0827434,-1000.0,-999.51171875,-128.90625,-1000.0,-1000.0
1578459930.0827434,-1000.0,-995.60546875,-896.97265625,-1000.0,-815.4296875
1578459930.0827434,-1000.0,-1000.0,-350.5859375,-1000.0,-776.3671875
1578459930.0827434,-1000.0,-1000.0,228.02734375,-1000.0,-1000.0
1578459930.1296184,-1000.0,-1000.0,-560.05859375,-1000.0,-1000.0
1578459930.1296184,-1000.0,-1000.0,-626.953125,-1000.0,-984.375
1578459930.1296184,-1000.0,-1000.0,56.640625,-1000.0,-992.1875
1578459930.1296184,-1000.0,-1000.0,223.14453125,-1000.0,-1000.0
1578459930.1296184,-1000.0,-1000.0,-342.7734375,-1000.0,-1000.0
1578459930.1296184,-1000.0,-999.0234375,-1000.0,-1000.0,-908.69140625
1578459930.1296184,-1000.0,-1000.0,-979.4921875,-1000.0,-902.83203125
1578459930.1296184,-1000.0,-1000.0,-253.90625,-1000.0,-1000.0
1578459930.1296184,-1000.0,-998.046875,-439.94140625,-1000.0,-996.58203125
1578459930.1296184,-1000.0,-999.51171875,-857.91015625,-1000.0,-789.0625
1578459930.1296184,-1000.0,-1000.0,46.875,-1000.0,-859.86328125
1578459930.1296184,-1000.0,-1000.0,271.484375,-1000.0,-1000.0
1578459930.1764934,-1000.0,-1000.0,-270.01953125,-1000.0,-911.1328125
1578459930.1764934,-1000.0,-1000.0,-153.80859375,-1000.0,-890.13671875
1578459930.1764934,-1000.0,-1000.0,-157.2265625,-1000.0,-1000.0
1578459930.1764934,-1000.0,-1000.0,-725.09765625,-1000.0,-1000.0
1578459930.1764934,-1000.0,-998.046875,-630.37109375,-1000.0,-925.78125
1578459930.1764934,-1000.0,-1000.0,-607.421875,-1000.0,-838.8671875
1578459930.1764934,-1000.0,-1000.0,-938.96484375,-1000.0,-892.578125
1578459930.1764934,-1000.0,-992.1875,-889.6484375,-1000.0,-1000.0
1578459930.1764934,-1000.0,-993.1640625,-990.72265625,-937.01171875,-834.9609375
1578459930.1764934,-1000.0,-1000.0,-429.6875,-1000.0,-655.2734375
1578459930.1764934,-1000.0,-1000.0,247.0703125,-352.05078125,-939.453125
1578459930.1764934,-1000.0,-1000.0,-595.703125,-965.8203125,-1000.0
1578459930.2233684,-1000.0,-1000.0,-568.84765625,-80.56640625,-937.01171875
1578459930.2233684,-1000.0,-1000.0,251.953125,-1000.0,-952.63671875
1578459930.2233684,-1000.0,-1000.0,231.4453125,307.12890625,-986.81640625
1578459930.2233684,-1000.0,-1000.0,-396.97265625,-895.5078125,-927.24609375
1578459930.2233684,-1000.0,-1000.0,-686.5234375,875.48828125,-885.7421875
1578459930.2233684,-1000.0,-1000.0,-676.7578125,560.546875,-892.578125
1578459930.2233684,-1000.0,-1000.0,-921.875,776.85546875,-896.484375
1578459930.2233684,-1000.0,-1000.0,-1000.0,-987.79296875,-914.55078125
1578459930.2233684,-1000.0,-1000.0,-805.6640625,977.5390625,-670.8984375
1578459930.2233684,-1000.0,-1000.0,-82.51953125,827.63671875,-693.359375
1578459930.2233684,-1000.0,-1000.0,82.03125,795.41015625,-1000.0
1578459930.2233684,-1000.0,-1000.0,-431.15234375,922.36328125,-932.12890625
1578459930.2702434,-1000.0,-1000.0,-372.0703125,-880.859375,-834.9609375
1578459930.2702434,-1000.0,-1000.0,164.55078125,324.21875,-944.82421875
1578459930.2702434,-1000.0,-981.4453125,-98.6328125,-824.21875,-1000.0
1578459930.2702434,-1000.0,-979.98046875,-645.99609375,356.93359375,-903.80859375
1578459930.2702434,-1000.0,-1000.0,-455.56640625,-913.0859375,-831.0546875
1578459930.2702434,-1000.0,-975.09765625,-708.49609375,-216.30859375,-864.2578125
1578459930.2702434,-1000.0,-916.015625,-1000.0,-1000.0,-876.46484375
1578459930.2702434,-1000.0,-924.31640625,-971.6796875,-872.55859375,-645.5078125
1578459930.2702434,-1000.0,-958.0078125,-971.6796875,-589.84375,-553.7109375
1578459930.2702434,-1000.0,-970.21484375,-248.046875,-872.0703125,-873.046875
1578459930.2702434,-1000.0,-953.125,-128.41796875,-1000.0,-977.05078125
1578459930.2702434,-1000.0,-938.96484375,-538.0859375,-979.4921875,-898.92578125
1578459930.3171184,-1000.0,-964.35546875,-170.41015625,-1000.0,-917.48046875
1578459930.3171184,-1000.0,-980.95703125,35.15625,-1000.0,-955.56640625
1578459930.3171184,-1000.0,-960.9375,-404.78515625,-1000.0,-918.45703125
1578459930.3171184,-1000.0,-954.58984375,-597.16796875,-1000.0,-909.1796875
1578459930.3171184,-1000.0,-985.3515625,-189.453125,-1000.0,-912.109375
1578459930.3171184,-1000.0,-965.8203125,-735.3515625,-1000.0,-835.44921875
1578459930.3171184,-1000.0,-969.23828125,-1000.0,-967.7734375,-826.66015625
1578459930.3171184,-1000.0,-992.1875,-819.3359375,-1000.0,-670.8984375
1578459930.3171184,-1000.0,-998.046875,-174.8046875,-793.45703125,-667.96875
1578459930.3171184,-1000.0,-1000.0,83.0078125,-262.6953125,-963.37890625
1578459930.3171184,-1000.0,-991.2109375,-481.93359375,-701.171875,-964.84375
1578459930.3171184,-1000.0,-983.3984375,-780.2734375,-1000.0,-901.3671875
1578459930.3639934,-1000.0,-998.046875,-193.84765625,-630.37109375,-986.328125
1578459930.3639934,-1000.0,-1000.0,-179.19921875,831.0546875,-1000.0
1578459930.3639934,-1000.0,-1000.0,-615.72265625,380.859375,-928.7109375
1578459930.3639934,-1000.0,-1000.0,-266.11328125,-1000.0,-887.6953125
1578459930.3639934,-1000.0,-1000.0,-86.9140625,-743.1640625,-970.703125
1578459930.3639934,-1000.0,-1000.0,-717.7734375,671.38671875,-977.05078125
1578459930.3639934,-1000.0,-1000.0,-1000.0,942.3828125,-782.71484375
1578459930.3639934,-1000.0,-1000.0,-559.08203125,-497.55859375,-631.34765625
1578459930.3639934,-1000.0,-1000.0,129.39453125,-933.10546875,-904.78515625
1578459930.3639934,-1000.0,-1000.0,-316.40625,453.125,-1000.0
1578459930.3639934,-1000.0,-1000.0,-694.3359375,-864.74609375,-926.26953125
1578459930.3639934,-1000.0,-1000.0,-135.25390625,-48.828125,-902.34375
1578459930.4108684,-1000.0,-996.09375,116.2109375,-1000.0,-980.95703125
1578459930.4108684,-1000.0,-996.09375,-521.97265625,-69.3359375,-1000.0
1578459930.4108684,-1000.0,-1000.0,-922.36328125,-797.8515625,-926.26953125
1578459930.4108684,-1000.0,-1000.0,-305.6640625,385.25390625,-900.390625
1578459930.4108684,-1000.0,-987.3046875,-158.203125,-1000.0,-973.6328125
1578459930.4108684,-1000.0,-979.00390625,-755.859375,-268.06640625,-992.67578125
1578459930.4108684,-1000.0,-1000.0,-1000.0,-895.5078125,-698.2421875
1578459930.4108684,-1000.0,-1000.0,-788.57421875,832.51953125,-648.92578125
1578459930.4108684,-1000.0,-991.69921875,-141.6015625,-622.55859375,-980.95703125
1578459930.4108684,-1000.0,-979.98046875,-529.296875,-453.61328125,-964.35546875
1578459930.4108684,-1000.0,-998.53515625,-774.90234375,947.265625,-885.7421875
1578459930.4108684,-1000.0,-1000.0,-295.8984375,-862.3046875,-915.52734375
1578459930.4577434,-1000.0,-997.55859375,-248.53515625,157.71484375,-955.078125
1578459930.4577434,-1000.0,-989.74609375,-604.00390625,-383.30078125,-879.8828125
1578459930.4577434,-1000.0,-997.0703125,-574.21875,778.80859375,-815.4296875
1578459930.4577434,-1000.0,-1000.0,-370.60546875,-835.9375,-886.23046875
1578459930.4577434,-1000.0,-994.140625,-726.5625,199.21875,-914.0625
1578459930.4577434,-1000.0,-951.171875,-999.0234375,-1000.0,-783.69140625
1578459930.4577434,-1000.0,-947.265625,-1000.0,-705.56640625,-648.4375
1578459930.4577434,-1000.0,-967.28515625,-821.77734375,-493.1640625,-803.22265625
1578459930.4577434,-1000.0,-927.734375,-691.40625,-1000.0,-912.59765625
1578459930.4577434,-1000.0,-922.36328125,-1000.0,-1000.0,-805.17578125
1578459930.4577434,-1000.0,-950.1953125,-761.71875,-983.3984375,-797.8515625
1578459930.4577434,-1000.0,-955.56640625,-402.83203125,-1000.0,-947.75390625
1578459930.5046184,-1000.0,-939.453125,-729.4921875,-1000.0,-902.34375
1578459930.5046184,-1000.0,-928.7109375,-980.46875,-1000.0,-843.75
1578459930.5046184,-1000.0,-938.96484375,-873.046875,-1000.0,-895.99609375
1578459930.5046184,-1000.0,-938.4765625,-932.12890625,-1000.0,-940.4296875
1578459930.5046184,-1000.0,-939.453125,-1000.0,-1000.0,-827.1484375
1578459930.5046184,-1000.0,-965.33203125,-998.53515625,-1000.0,-710.44921875
1578459930.5046184,-1000.0,-974.12109375,-1000.0,-1000.0,-808.59375
1578459930.5046184,-1000.0,-969.7265625,-998.53515625,-1000.0,-860.83984375
1578459930.5046184,-1000.0,-975.09765625,-1000.0,-1000.0,-875.9765625
1578459930.5046184,-1000.0,-977.05078125,-1000.0,-1000.0,-652.83203125
1578459930.5046184,-1000.0,-972.65625,-919.921875,-1000.0,-685.546875
1578459930.5046184,-1000.0,-967.7734375,-928.22265625,-1000.0,-970.703125
1578459930.5514934,-1000.0,-969.23828125,-1000.0,-1000.0,-904.296875
1578459930.5514934,-1000.0,-980.95703125,-910.64453125,-1000.0,-852.5390625
1578459930.5514934,-1000.0,-995.60546875,-715.8203125,-1000.0,-931.15234375
1578459930.5514934,-1000.0,-992.67578125,-793.9453125,-1000.0,-960.9375
1578459930.5514934,-1000.0,-983.3984375,-1000.0,-1000.0,-914.0625
1578459930.5514934,-1000.0,-995.1171875,-1000.0,-1000.0,-864.74609375
1578459930.5514934,-1000.0,-1000.0,-989.74609375,-1000.0,-882.32421875
1578459930.5514934,-1000.0,-992.67578125,-997.0703125,-1000.0,-916.50390625
1578459930.5514934,-1000.0,-992.67578125,-1000.0,-1000.0,-786.1328125
1578459930.5514934,-1000.0,-1000.0,-745.60546875,-1000.0,-692.87109375
1578459930.5514934,-1000.0,-1000.0,-669.43359375,-1000.0,-911.1328125
1578459930.5514934,-1000.0,-998.53515625,-942.87109375,-1000.0,-994.140625
1578459930.5983684,-1000.0,-997.55859375,-607.91015625,-1000.0,-942.3828125
1578459930.5983684,-1000.0,-1000.0,-68.84765625,-1000.0,-953.61328125
1578459930.5983684,-1000.0,-1000.0,54.19921875,-1000.0,-991.69921875
1578459930.5983684,-1000.0,-1000.0,-394.04296875,-1000.0,-980.46875
1578459930.5983684,-1000.0,-1000.0,-589.35546875,-1000.0,-949.70703125
1578459930.5983684,-1000.0,-1000.0,-644.04296875,-1000.0,-938.96484375
1578459930.5983684,-1000.0,-1000.0,-883.7890625,-1000.0,-957.03125
1578459930.5983684,-1000.0,-999.0234375,-934.08203125,-1000.0,-999.0234375
1578459930.5983684,-1000.0,-1000.0,-800.78125,-1000.0,-793.9453125
1578459930.5983684,-1000.0,-1000.0,69.3359375,-1000.0,-817.87109375
1578459930.5983684,-1000.0,-1000.0,261.23046875,-1000.0,-1000.0
1578459930.5983684,-1000.0,-1000.0,-301.7578125,-1000.0,-986.81640625
1578459930.6452434,-1000.0,-1000.0,-296.875,-1000.0,-986.81640625
1578459930.6452434,-1000.0,-1000.0,-265.13671875,-1000.0,-1000.0
1578459930.6452434,-1000.0,-1000.0,-220.21484375,-1000.0,-1000.0
1578459930.6452434,-1000.0,-1000.0,-287.109375,-1000.0,-994.140625
1578459930.6452434,-1000.0,-1000.0,-104.98046875,-1000.0,-996.09375
1578459930.6452434,-1000.0,-1000.0,-388.18359375,-1000.0,-991.2109375
1578459930.6452434,-1000.0,-1000.0,-812.5,-1000.0,-1000.0
1578459930.6452434,-1000.0,-1000.0,-1000.0,-1000.0,-894.04296875
1578459930.6452434,-1000.0,-1000.0,-501.46484375,-1000.0,-807.6171875
1578459930.6452434,-1000.0,-1000.0,398.92578125,-1000.0,-992.67578125
1578459930.6452434,-1000.0,-1000.0,-122.0703125,-1000.0,-1000.0
1578459930.6452434,-1000.0,-1000.0,-466.796875,-1000.0,-992.1875
1578459930.6921184,-1000.0,-1000.0,171.875,-996.09375,-1000.0
1578459930.6921184,-1000.0,-1000.0,396.97265625,-1000.0,-1000.0
1578459930.6921184,-1000.0,-1000.0,-216.30859375,-973.14453125,-1000.0
1578459930.6921184,-1000.0,-1000.0,-802.734375,-915.52734375,-1000.0
1578459930.6921184,-1000.0,-1000.0,-431.15234375,-981.93359375,-999.51171875
1578459930.6921184,-1000.0,-1000.0,-475.5859375,-1000.0,-994.140625
1578459930.6921184,-1000.0,-1000.0,-934.5703125,57.6171875,-1000.0
1578459930.6921184,-1000.0,-1000.0,-889.6484375,-806.640625,-853.02734375
1578459930.6921184,-1000.0,-1000.0,6.8359375,438.4765625,-837.890625
1578459930.6921184,-1000.0,-1000.0,561.03515625,-288.57421875,-1000.0
1578459930.6921184,-1000.0,-1000.0,-122.0703125,672.8515625,-994.140625
1578459930.6921184,-1000.0,-1000.0,-144.04296875,-936.5234375,-992.1875
1578459930.7389934,-1000.0,-1000.0,322.265625,919.921875,-1000.0
1578459930.7389934,-1000.0,-1000.0,145.01953125,883.7890625,-1000.0
1578459930.7389934,-1000.0,-1000.0,-297.36328125,923.828125,-995.1171875
1578459930.7389934,-1000.0,-1000.0,-124.51171875,971.19140625,-996.09375
1578459930.7389934,-1000.0,-1000.0,124.0234375,-999.51171875,-992.1875
1578459930.7389934,-1000.0,-1000.0,-574.21875,801.26953125,-1000.0
1578459930.7389934,-1000.0,-1000.0,-1000.0,753.41796875,-942.3828125
1578459930.7389934,-1000.0,-998.046875,-826.66015625,925.29296875,-848.14453125
1578459930.7389934,-1000.0,-1000.0,54.6875,-882.8125,-984.86328125
1578459930.7389934,-1000.0,-991.69921875,136.23046875,329.1015625,-1000.0
1578459930.7389934,-1000.0,-953.61328125,-313.4765625,-845.703125,-991.69921875
1578459930.7389934,-1000.0,-983.3984375,12.6953125,307.12890625,-1000.0
1578459930.7858684,-1000.0,-1000.0,295.8984375,-878.90625,-1000.0
1578459930.7858684,-1000.0,-962.40234375,-206.0546875,-184.08203125,-1000.0
1578459930.7858684,-1000.0,-912.109375,-457.03125,-1000.0,-1000.0
1578459930.7858684,-1000.0,-940.4296875,67.3828125,-958.49609375,-998.53515625
1578459930.7858684,-1000.0,-941.40625,-6.34765625,-990.234375,-994.140625
1578459930.7858684,-1000.0,-931.15234375,-666.50390625,-1000.0,-1000.0
1578459930.7858684,-1000.0,-932.12890625,-1000.0,-1000.0,-811.5234375
1578459930.7858684,-1000.0,-953.125,-267.578125,-1000.0,-785.64453125
1578459930.7858684,-1000.0,-969.7265625,87.40234375,-1000.0,-1000.0
1578459930.7858684,-1000.0,-946.77734375,-654.78515625,-1000.0,-993.1640625
1578459930.7858684,-1000.0,-957.51953125,-535.64453125,-1000.0,-977.5390625
1578459930.7858684,-1000.0,-992.67578125,176.7578125,-1000.0,-999.0234375
1578459930.8327434,-1000.0,-987.3046875,-26.85546875,-1000.0,-1000.0
1578459930.8327434,-1000.0,-951.171875,-556.15234375,-1000.0,-981.93359375
1578459930.8327434,-1000.0,-965.8203125,-362.79296875,-1000.0,-975.5859375
1578459930.8327434,-1000.0,-1000.0,51.7578125,-1000.0,-992.1875
1578459930.8327434,-1000.0,-983.88671875,-257.32421875,-1000.0,-1000.0
1578459930.8327434,-1000.0,-964.35546875,-873.046875,-1000.0,-907.2265625
1578459930.8327434,-1000.0,-963.37890625,-1000.0,-1000.0,-811.5234375
1578459930.8327434,-1000.0,-978.515625,-602.5390625,-1000.0,-984.86328125
1578459930.8327434,-1000.0,-984.375,-394.04296875,-1000.0,-1000.0
1578459930.8327434,-1000.0,-967.28515625,-925.78125,-1000.0,-911.62109375
1578459930.8327434,-1000.0,-988.76953125,-487.79296875,-1000.0,-911.62109375
1578459930.8327434,-1000.0,-1000.0,-19.04296875,-1000.0,-1000.0
1578459930.8796184,-1000.0,-982.421875,-725.5859375,-1000.0,-998.53515625
1578459930.8796184,-1000.0,-980.95703125,-734.86328125,-1000.0,-996.09375
1578459930.8796184,-1000.0,-1000.0,-152.34375,-1000.0,-998.53515625
1578459930.8796184,-1000.0,-1000.0,-44.43359375,-1000.0,-1000.0
1578459930.8796184,-1000.0,-987.3046875,-510.7421875,-1000.0,-1000.0
1578459930.8796184,-1000.0,-979.4921875,-1000.0,-1000.0,-963.37890625
1578459930.8796184,-1000.0,-984.86328125,-996.09375,-1000.0,-935.546875
1578459930.8796184,-1000.0,-996.09375,-408.203125,-1000.0,-989.2578125
1578459930.8796184,-1000.0,-993.65234375,-561.03515625,-1000.0,-1000.0
1578459930.8796184,-1000.0,-992.1875,-896.97265625,-1000.0,-840.33203125
1578459930.8796184,-1000.0,-1000.0,-145.01953125,-1000.0,-888.671875
1578459930.8796184,-1000.0,-1000.0,52.24609375,-1000.0,-1000.0
1578459930.9264934,-1000.0,-998.53515625,-432.6171875,-1000.0,-969.7265625
1578459930.9264934,-1000.0,-999.0234375,-317.3828125,-1000.0,-961.9140625
1578459930.9264934,-1000.0,-1000.0,-318.84765625,-1000.0,-1000.0
1578459930.9264934,-1000.0,-992.67578125,-819.82421875,-1000.0,-1000.0
1578459930.9264934,-1000.0,-988.28125,-739.74609375,-1000.0,-977.5390625
1578459930.9264934,-1000.0,-999.51171875,-793.45703125,-1000.0,-950.68359375
1578459930.9264934,-1000.0,-998.046875,-981.93359375,-1000.0,-981.4453125
1578459930.9264934,-1000.0,-997.0703125,-664.55078125,-1000.0,-1000.0
1578459930.9264934,-1000.0,-997.55859375,-867.1875,-1000.0,-897.94921875
1578459930.9264934,-1000.0,-1000.0,-575.1953125,-1000.0,-783.69140625
1578459930.9264934,-1000.0,-1000.0,310.546875,-1000.0,-982.421875
1578459930.9264934,-1000.0,-1000.0,-215.8203125,-1000.0,-1000.0
1578459930.9733684,-1000.0,-1000.0,-568.359375,-1000.0,-989.2578125
1578459930.9733684,-1000.0,-1000.0,77.63671875,-1000.0,-1000.0
1578459930.9733684,-1000.0,-1000.0,208.0078125,-1000.0,-1000.0
1578459930.9733684,-1000.0,-1000.0,-376.46484375,-1000.0,-999.51171875
1578459930.9733684,-1000.0,-1000.0,-666.015625,-1000.0,-992.1875
1578459930.9733684,-1000.0,-1000.0,-612.3046875,-1000.0,-988.76953125
1578459930.9733684,-1000.0,-1000.0,-881.34765625,-1000.0,-992.1875
1578459930.9733684,-1000.0,-1000.0,-1000.0,-1000.0,-1000.0
1578459930.9733684,-1000.0,-1000.0,-801.26953125,-1000.0,-842.7734375
1578459930.9733684,-1000.0,-1000.0,-45.8984375,-1000.0,-837.40234375
1578459930.9733684,-1000.0,-1000.0,202.1484375,-1000.0,-1000.0
1578459930.9733684,-1000.0,-1000.0,-329.58984375,-1000.0,-992.67578125
1578459931.0202434,-1000.0,-1000.0,-286.62109375,-1000.0,-992.67578125
1578459931.0202434,-1000.0,-1000.0,253.41796875,-1000.0,-1000.0
1578459931.0202434,-1000.0,-1000.0,-40.52734375,-1000.0,-1000.0
1578459931.0202434,-1000.0,-1000.0,-531.25,-1000.0,-995.60546875
1578459931.0202434,-1000.0,-1000.0,-305.17578125,-1000.0,-995.60546875
1578459931.0202434,-1000.0,-1000.0,-574.70703125,-1000.0,-990.72265625
1578459931.0202434,-1000.0,-999.0234375,-955.078125,-1000.0,-1000.0
1578459931.0202434,-1000.0,-997.0703125,-996.58203125,-1000.0,-884.27734375
1578459931.0202434,-1000.0,-1000.0,-941.40625,-1000.0,-779.296875
1578459931.0202434,-1000.0,-1000.0,-65.4296875,-1000.0,-985.83984375
1578459931.0202434,-1000.0,-1000.0,-15.625,-1000.0,-1000.0
1578459931.0202434,-1000.0,-1000.0,-528.3203125,-1000.0,-990.234375
1578459931.0671184,-1000.0,-1000.0,-116.2109375,-1000.0,-1000.0
1578459931.0671184,-1000.0,-1000.0,174.31640625,-1000.0,-1000.0
1578459931.0671184,-1000.0,-999.0234375,-312.98828125,-1000.0,-1000.0
1578459931.0671184,-1000.0,-998.046875,-553.7109375,-1000.0,-999.51171875
1578459931.0671184,-1000.0,-1000.0,-85.9375,-1000.0,-998.046875
1578459931.0671184,-1000.0,-993.65234375,-669.921875,-1000.0,-992.1875
1578459931.0671184,-1000.0,-992.1875,-1000.0,-1000.0,-1000.0
1578459931.0671184,-1000.0,-1000.0,-820.3125,-1000.0,-810.05859375
1578459931.0671184,-1000.0,-1000.0,-104.4921875,-1000.0,-759.27734375
1578459931.0671184,-1000.0,-1000.0,227.5390625,-1000.0,-1000.0
1578459931.0671184,-1000.0,-1000.0,-401.85546875,-1000.0,-998.53515625
1578459931.0671184,-1000.0,-1000.0,-740.72265625,-1000.0,-982.91015625
1578459931.1139934,-1000.0,-1000.0,-106.4453125,-1000.0,-1000.0
1578459931.1139934,-1000.0,-1000.0,30.2734375,-1000.0,-1000.0
1578459931.1139934,-1000.0,-1000.0,-480.46875,-1000.0,-986.328125
1578459931.1139934,-1000.0,-1000.0,-281.25,-1000.0,-983.3984375
1578459931.1139934,-1000.0,-1000.0,40.52734375,-1000.0,-988.28125
1578459931.1139934,-1000.0,-1000.0,-576.66015625,-1000.0,-1000.0
1578459931.1139934,-1000.0,-1000.0,-1000.0,-1000.0,-880.859375
1578459931.1139934,-1000.0,-1000.0,-591.30859375,-1000.0,-723.6328125
1578459931.1139934,-1000.0,-1000.0,160.15625,-1000.0,-958.49609375
1578459931.1139934,-1000.0,-999.51171875,-159.66796875,-1000.0,-1000.0
1578459931.1139934,-1000.0,-997.0703125,-561.5234375,-1000.0,-981.4453125
1578459931.1139934,-1000.0,-1000.0,-57.12890625,-1000.0,-985.3515625
1578459931.1608684,-1000.0,-1000.0,196.2890625,-1000.0,-999.51171875
1578459931.1608684,-1000.0,-999.51171875,-428.22265625,-1000.0,-1000.0
1578459931.1608684,-1000.0,-999.51171875,-826.66015625,-1000.0,-999.0234375
1578459931.1608684,-1000.0,-1000.0,-152.83203125,-1000.0,-998.046875
1578459931.1608684,-1000.0,-1000.0,-24.90234375,-1000.0,-995.1171875
1578459931.1608684,-1000.0,-1000.0,-708.0078125,-1000.0,-1000.0
1578459931.1608684,-1000.0,-1000.0,-1000.0,-1000.0,-791.50390625
1578459931.1608684,-1000.0,-1000.0,-489.74609375,-1000.0,-783.69140625
1578459931.1608684,-1000.0,-1000.0,126.953125,-1000.0,-1000.0
1578459931.1608684,-1000.0,-993.65234375,-489.2578125,-1000.0,-994.62890625
1578459931.1608684,-1000.0,-993.65234375,-702.1484375,-1000.0,-988.76953125
1578459931.1608684,-1000.0,-1000.0,-93.26171875,-1000.0,-994.62890625
1578459931.2077434,-1000.0,-1000.0,-46.875,-1000.0,-1000.0
1578459931.2077434,-1000.0,-998.046875,-473.14453125,-1000.0,-961.9140625
1578459931.2077434,-1000.0,-999.51171875,-372.0703125,-1000.0,-911.62109375
1578459931.2077434,-1000.0,-1000.0,-72.75390625,-1000.0,-988.76953125
1578459931.2077434,-1000.0,-998.53515625,-492.67578125,-1000.0,-1000.0
1578459931.2077434,-1000.0,-998.53515625,-934.08203125,-1000.0,-885.7421875
1578459931.2077434,-1000.0,-997.0703125,-1000.0,-1000.0,-765.13671875
1578459931.2077434,-1000.0,-997.55859375,-682.12890625,-1000.0,-941.89453125
1578459931.2077434,-1000.0,-997.0703125,-368.65234375,-1000.0,-1000.0
1578459931.2077434,-1000.0,-991.69921875,-966.30859375,-1000.0,-909.66796875
1578459931.2077434,-1000.0,-1000.0,-577.63671875,-1000.0,-904.296875
1578459931.2077434,-1000.0,-1000.0,254.39453125,-1000.0,-1000.0
1578459931.2546184,-1000.0,-1000.0,-210.9375,-1000.0,-999.0234375
1578459931.2546184,-1000.0,-1000.0,-602.5390625,-1000.0,-991.2109375
1578459931.2546184,-1000.0,-1000.0,-58.59375,-1000.0,-995.60546875
1578459931.2546184,-1000.0,-1000.0,167.96875,-1000.0,-1000.0
1578459931.2546184,-1000.0,-999.51171875,-389.6484375,-1000.0,-1000.0
1578459931.2546184,-1000.0,-1000.0,-989.74609375,-1000.0,-934.08203125
1578459931.2546184,-1000.0,-996.58203125,-947.265625,-1000.0,-929.19921875
1578459931.2546184,-1000.0,-996.09375,-894.53125,-1000.0,-1000.0
1578459931.2546184,-1000.0,-999.51171875,-991.69921875,-1000.0,-1000.0
1578459931.2546184,-1000.0,-1000.0,-788.57421875,-1000.0,-807.12890625
1578459931.2546184,-1000.0,-1000.0,119.140625,-1000.0,-818.359375
1578459931.2546184,-1000.0,-1000.0,254.8828125,-1000.0,-1000.0
1578459931.3014934,-1000.0,-1000.0,-393.06640625,-1000.0,-987.3046875
1578459931.3014934,-1000.0,-1000.0,-189.453125,-1000.0,-986.81640625
1578459931.3014934,-1000.0,-1000.0,300.78125,-1000.0,-999.51171875
1578459931.3014934,-1000.0,-1000.0,60.05859375,-1000.0,-1000.0
1578459931.3014934,-1000.0,-1000.0,-515.13671875,-1000.0,-984.375
1578459931.3014934,-1000.0,-1000.0,-774.4140625,-1000.0,-953.61328125
1578459931.3014934,-1000.0,-1000.0,-875.9765625,-1000.0,-979.00390625
1578459931.3014934,-1000.0,-995.1171875,-808.59375,-1000.0,-1000.0
1578459931.3014934,-1000.0,-993.65234375,-912.109375,-1000.0,-858.3984375
1578459931.3014934,-1000.0,-1000.0,-656.25,-1000.0,-766.11328125
1578459931.3014934,-1000.0,-1000.0,-158.69140625,-1000.0,-986.81640625
1578459931.3014934,-1000.0,-1000.0,-318.359375,-1000.0,-1000.0
1578459931.3483684,-1000.0,-1000.0,-409.66796875,-1000.0,-990.234375
1578459931.3483684,-1000.0,-1000.0,46.875,-1000.0,-1000.0
1578459931.3483684,-1000.0,-1000.0,206.0546875,-1000.0,-1000.0
1578459931.3483684,-1000.0,-1000.0,-322.75390625,-1000.0,-1000.0
1578459931.3483684,-1000.0,-1000.0,-621.09375,-1000.0,-995.1171875
1578459931.3483684,-1000.0,-1000.0,-686.03515625,-1000.0,-996.09375
1578459931.3483684,-1000.0,-994.62890625,-967.7734375,-1000.0,-996.09375
1578459931.3483684,-1000.0,-986.81640625,-1000.0,-1000.0,-1000.0
1578459931.3483684,-1000.0,-997.0703125,-830.078125,-1000.0,-803.22265625
1578459931.3483684,-1000.0,-1000.0,-65.4296875,-1000.0,-807.6171875
1578459931.3483684,-1000.0,-1000.0,199.70703125,-1000.0,-1000.0
1578459931.3483684,-1000.0,-1000.0,-292.96875,-1000.0,-989.2578125
1578459931.3952434,-1000.0,-1000.0,-555.6640625,-1000.0,-988.76953125
1578459931.3952434,-1000.0,-1000.0,-376.953125,-1000.0,-1000.0
1578459931.3952434,-1000.0,-1000.0,-167.48046875,-1000.0,-1000.0
1578459931.3952434,-1000.0,-1000.0,-353.515625,-1000.0,-985.3515625
1578459931.3952434,-1000.0,-1000.0,-271.484375,-1000.0,-982.421875
1578459931.3952434,-1000.0,-1000.0,-583.984375,-1000.0,-990.72265625
1578459931.3952434,-1000.0,-998.046875,-922.8515625,-1000.0,-1000.0
1578459931.3952434,-1000.0,-996.58203125,-1000.0,-1000.0,-898.92578125
1578459931.3952434,-1000.0,-1000.0,-558.59375,-1000.0,-771.97265625
1578459931.3952434,-1000.0,-1000.0,222.16796875,-1000.0,-976.07421875
1578459931.3952434,-1000.0,-1000.0,-267.578125,-1000.0,-1000.0
1578459931.3952434,-1000.0,-1000.0,-586.9140625,-1000.0,-988.28125
1578459931.4421184,-1000.0,-1000.0,-13.671875,-1000.0,-1000.0
1578459931.4421184,-1000.0,-1000.0,163.0859375,-1000.0,-999.0234375
1578459931.4421184,-1000.0,-998.53515625,-367.67578125,-1000.0,-1000.0
1578459931.4421184,-1000.0,-996.58203125,-979.4921875,-1000.0,-1000.0
1578459931.4421184,-1000.0,-1000.0,-630.859375,-1000.0,-999.51171875
1578459931.4421184,-1000.0,-999.51171875,-608.3984375,-1000.0,-993.1640625
1578459931.4421184,-1000.0,-998.53515625,-1000.0,-1000.0,-1000.0
1578459931.4421184,-1000.0,-1000.0,-918.45703125,-1000.0,-843.26171875
1578459931.4421184,-1000.0,-1000.0,-227.05078125,-1000.0,-823.2421875
1578459931.4421184,-1000.0,-1000.0,288.0859375,-1000.0,-1000.0
1578459931.4421184,-1000.0,-1000.0,-459.47265625,-1000.0,-995.60546875
1578459931.4421184,-1000.0,-1000.0,-638.18359375,-1000.0,-993.1640625
1578459931.4889934,-1000.0,-1000.0,77.63671875,-1000.0,-1000.0
1578459931.4889934,-1000.0,-1000.0,39.55078125,-1000.0,-1000.0
1578459931.4889934,-1000.0,-1000.0,-401.85546875,-1000.0,-993.65234375
1578459931.4889934,-1000.0,-1000.0,-258.7890625,-1000.0,-984.375
1578459931.4889934,-1000.0,-1000.0,-30.76171875,-1000.0,-985.3515625
1578459931.4889934,-1000.0,-999.0234375,-671.38671875,-1000.0,-1000.0
1578459931.4889934,-1000.0,-998.046875,-1000.0,-1000.0,-920.8984375
1578459931.4889934,-1000.0,-1000.0,-936.03515625,-1000.0,-798.828125
1578459931.4889934,-1000.0,-1000.0,-214.35546875,-1000.0,-972.65625
1578459931.4889934,-1000.0,-999.51171875,-127.44140625,-1000.0,-1000.0
1578459931.4889934,-1000.0,-998.046875,-630.37109375,-1000.0,-988.28125
1578459931.4889934,-1000.0,-1000.0,-246.09375,-1000.0,-1000.0
1578459931.5358684,-1000.0,-1000.0,89.84375,-1000.0,-1000.0
1578459931.5358684,-1000.0,-997.0703125,-388.18359375,-1000.0,-1000.0
1578459931.5358684,-1000.0,-995.1171875,-641.6015625,-1000.0,-1000.0
1578459931.5358684,-1000.0,-1000.0,-168.9453125,-1000.0,-999.51171875
1578459931.5358684,-1000.0,-1000.0,-251.46484375,-1000.0,-991.69921875
1578459931.5358684,-1000.0,-1000.0,-800.78125,-1000.0,-1000.0
1578459931.5358684,-1000.0,-1000.0,-1000.0,-1000.0,-822.265625
1578459931.5358684,-1000.0,-1000.0,-437.01171875,-1000.0,-772.94921875
1578459931.5358684,-1000.0,-1000.0,-158.69140625,-1000.0,-1000.0
1578459931.5358684,-1000.0,-1000.0,-801.26953125,-1000.0,-1000.0
1578459931.5358684,-1000.0,-1000.0,-618.1640625,-1000.0,-990.72265625
1578459931.5358684,-1000.0,-1000.0,21.97265625,-1000.0,-1000.0
