timestamp,eeg1,eeg2,eeg3,eeg4,eeg5(aux)
1578458769.6223423,0.0,0.0,0.0,-0.48828125,0.0
1578458769.6223423,0.0,0.0,0.0,3.41796875,0.0
1578458769.6223423,-27.83203125,-31.25,-21.484375,12.20703125,0.0
1578458769.6223423,60.546875,67.87109375,43.45703125,-108.3984375,0.0
1578458769.6223423,-343.26171875,-382.32421875,-260.7421875,511.23046875,0.0
1578458769.6223423,-895.5078125,-1000.0,-729.98046875,-66.89453125,0.0
1578458769.6223423,-856.93359375,-971.6796875,-819.82421875,-1000.0,0.0
1578458769.6223423,-850.09765625,-953.61328125,-716.796875,266.6015625,0.0
1578458769.6223423,-867.67578125,-958.984375,-665.0390625,-753.90625,0.0
1578458769.6223423,-866.69921875,-967.28515625,-804.19921875,127.44140625,0.0
1578458769.6223423,-865.234375,-984.86328125,-844.7265625,-1000.0,0.0
1578458769.6223423,-862.79296875,-961.9140625,-718.26171875,-153.3203125,0.0
1578458769.6692173,-863.76953125,-929.19921875,-657.71484375,-773.92578125,-0.48828125
1578458769.6692173,-866.69921875,-938.4765625,-774.4140625,271.97265625,-0.48828125
1578458769.6692173,-865.72265625,-970.703125,-816.40625,-1000.0,-0.9765625
1578458769.6692173,-865.234375,-972.16796875,-723.14453125,-269.04296875,-22.4609375
1578458769.6692173,-865.72265625,-943.359375,-710.9375,-860.83984375,14.16015625
1578458769.6692173,-862.3046875,-943.84765625,-665.52734375,782.71484375,-353.02734375
1578458769.6692173,-864.74609375,-975.09765625,-665.0390625,-831.0546875,-1000.0
1578458769.6692173,-867.67578125,-988.28125,-486.328125,-425.29296875,-375.9765625
1578458769.6692173,-869.140625,-954.58984375,-412.109375,-953.125,-0.48828125
1578458769.6692173,-868.65234375,-932.12890625,-793.9453125,-970.21484375,-958.49609375
1578458769.6692173,-865.234375,-959.9609375,-820.3125,-214.84375,-1000.0
1578458769.6692173,-864.2578125,-973.14453125,-748.53515625,-1000.0,-353.02734375
1578458769.7160923,-866.2109375,-950.1953125,-818.359375,75.68359375,-147.94921875
1578458769.7160923,-865.234375,-935.546875,-864.2578125,-768.5546875,-909.1796875
1578458769.7160923,-861.81640625,-956.54296875,-773.92578125,182.12890625,-1000.0
1578458769.7160923,-867.1875,-977.5390625,-716.30859375,-1000.0,-434.5703125
1578458769.7160923,-868.65234375,-965.8203125,-809.08203125,-262.20703125,-468.26171875
1578458769.7160923,-862.79296875,-940.4296875,-743.65234375,-816.89453125,-125.0
1578458769.7160923,-863.28125,-951.66015625,-607.421875,537.109375,186.5234375
1578458769.7160923,-867.1875,-990.234375,-456.0546875,-1000.0,588.37890625
1578458769.7160923,-870.60546875,-980.95703125,-660.15625,-427.24609375,267.578125
1578458769.7160923,-867.67578125,-939.94140625,-787.59765625,-943.84765625,-1000.0
1578458769.7160923,-865.72265625,-938.96484375,-620.1171875,951.171875,-859.86328125
1578458769.7160923,-865.72265625,-969.7265625,-710.9375,-578.61328125,-631.34765625
1578458769.7629673,-865.234375,-976.5625,-903.3203125,-863.76953125,-943.84765625
1578458769.7629673,-862.79296875,-950.68359375,-863.28125,684.5703125,-1000.0
1578458769.7629673,-862.3046875,-938.4765625,-727.05078125,-801.26953125,-618.1640625
1578458769.7629673,-865.72265625,-958.49609375,-771.484375,-12.20703125,-369.140625
1578458769.7629673,-867.1875,-979.00390625,-860.3515625,-1000.0,-928.7109375
1578458769.7629673,-865.234375,-959.9609375,-779.296875,218.26171875,-458.49609375
1578458769.7629673,-863.76953125,-947.265625,-479.4921875,-746.58203125,464.35546875
1578458769.7629673,-868.1640625,-966.796875,-411.1328125,201.171875,658.69140625
1578458769.7629673,-869.62890625,-977.05078125,-839.35546875,-1000.0,-607.421875
1578458769.7629673,-864.2578125,-969.23828125,-896.97265625,-259.27734375,-847.65625
1578458769.7629673,-864.74609375,-949.70703125,-778.3203125,-863.76953125,55.17578125
1578458769.7629673,-865.72265625,-951.66015625,-777.34375,617.1875,-275.390625
1578458769.8098423,-866.2109375,-984.375,-815.91796875,-961.42578125,-1000.0
1578458769.8098423,-865.234375,-996.58203125,-829.1015625,-426.26953125,-998.53515625
1578458769.8098423,-864.2578125,-969.7265625,-754.39453125,-954.58984375,-573.73046875
1578458769.8098423,-865.72265625,-958.0078125,-806.15234375,-978.02734375,-744.140625
1578458769.8098423,-865.234375,-980.46875,-873.53515625,-471.19140625,-1000.0
1578458769.8098423,-862.3046875,-996.09375,-748.53515625,-797.8515625,-492.1875
1578458769.8098423,-864.74609375,-974.609375,-504.8828125,772.94921875,610.3515625
1578458769.8098423,-870.1171875,-955.078125,-644.04296875,-816.89453125,331.54296875
1578458769.8098423,-865.72265625,-971.6796875,-884.765625,54.6875,-1000.0
1578458769.8098423,-861.328125,-995.1171875,-735.3515625,-1000.0,-921.875
1578458769.8098423,-865.234375,-980.46875,-662.59765625,46.875,-698.73046875
1578458769.8098423,-866.69921875,-950.68359375,-829.58984375,-770.99609375,-795.8984375
1578458769.8567173,-864.2578125,-963.8671875,-879.8828125,237.79296875,-899.4140625
1578458769.8567173,-860.83984375,-994.62890625,-698.2421875,-1000.0,-822.75390625
1578458769.8567173,-864.74609375,-991.2109375,-569.82421875,-270.5078125,-599.12109375
1578458769.8567173,-868.1640625,-960.9375,-743.1640625,-850.09765625,-927.734375
1578458769.8567173,-864.2578125,-961.42578125,-820.80078125,720.703125,-1000.0
1578458769.8567173,-862.3046875,-992.1875,-708.984375,-905.76171875,-391.6015625
1578458769.8567173,-865.72265625,-1000.0,-624.51171875,-414.0625,593.26171875
1578458769.8567173,-868.65234375,-972.65625,-740.234375,986.81640625,-313.96484375
1578458769.8567173,-865.72265625,-963.8671875,-849.12109375,-856.93359375,-1000.0
1578458769.8567173,-860.83984375,-993.65234375,-573.2421875,-5.37109375,-322.265625
1578458769.8567173,-865.72265625,-1000.0,-578.61328125,-879.39453125,-142.578125
1578458769.8567173,-868.1640625,-984.86328125,-867.67578125,565.4296875,-1000.0
1578458769.9035923,-863.28125,-971.6796875,-766.11328125,-753.41796875,-1000.0
1578458769.9035923,-865.72265625,-994.140625,-720.21484375,155.2734375,-220.21484375
1578458769.9035923,-869.140625,-1000.0,-831.0546875,-1000.0,214.84375
1578458769.9035923,-865.72265625,-992.1875,-872.55859375,106.4453125,-713.8671875
1578458769.9035923,-862.3046875,-981.93359375,-739.74609375,-828.61328125,-1000.0
1578458769.9035923,-865.72265625,-995.1171875,-606.93359375,661.1328125,-277.83203125
1578458769.9035923,-872.55859375,-1000.0,-665.52734375,-809.08203125,153.80859375
1578458769.9035923,-869.140625,-1000.0,-727.5390625,-238.28125,-695.80078125
1578458769.9035923,-862.3046875,-994.62890625,-618.1640625,-898.92578125,-1000.0
1578458769.9035923,-863.76953125,-996.58203125,-411.62109375,-950.1953125,106.4453125
1578458769.9035923,-870.1171875,-1000.0,-686.03515625,-362.79296875,-67.3828125
1578458769.9035923,-865.234375,-1000.0,-935.05859375,-439.94140625,-1000.0
1578458769.9504673,-864.2578125,-997.55859375,-765.13671875,984.375,-781.73828125
1578458769.9504673,-866.2109375,-991.69921875,-745.60546875,-829.1015625,-578.61328125
1578458769.9504673,-865.234375,-999.51171875,-859.375,45.41015625,-932.12890625
1578458769.9504673,-864.74609375,-1000.0,-869.62890625,-793.45703125,-1000.0
1578458769.9504673,-863.76953125,-1000.0,-758.30078125,640.625,-532.71484375
1578458769.9504673,-865.234375,-999.0234375,-649.4140625,-767.578125,277.34375
1578458769.9504673,-867.67578125,-999.51171875,-676.7578125,308.10546875,-174.8046875
1578458769.9504673,-866.2109375,-1000.0,-816.89453125,-1000.0,-566.40625
1578458769.9504673,-862.3046875,-1000.0,-568.84765625,34.66796875,109.86328125
1578458769.9504673,-868.1640625,-986.81640625,-457.51953125,-758.7890625,612.79296875
1578458769.9504673,-868.1640625,-982.91015625,-862.3046875,606.93359375,-693.84765625
1578458769.9504673,-863.76953125,-1000.0,-879.8828125,-945.80078125,-1000.0
1578458769.9973423,-864.2578125,-1000.0,-775.390625,-258.7890625,-577.63671875
1578458769.9973423,-865.72265625,-989.2578125,-835.9375,-916.50390625,-723.14453125
1578458769.9973423,-866.69921875,-984.375,-890.625,-949.70703125,-1000.0
1578458769.9973423,-864.74609375,-998.046875,-824.70703125,-373.53515625,-1000.0
1578458769.9973423,-862.79296875,-1000.0,-762.20703125,-685.05859375,-584.47265625
1578458769.9973423,-863.76953125,-991.2109375,-726.5625,859.86328125,-2.9296875
1578458769.9973423,-866.2109375,-987.79296875,-702.63671875,-823.2421875,-233.88671875
1578458769.9973423,-863.28125,-1000.0,-664.55078125,126.953125,-999.51171875
1578458769.9973423,-864.2578125,-1000.0,-487.79296875,-1000.0,88.37890625
1578458769.9973423,-870.60546875,-994.140625,-694.82421875,101.07421875,255.37109375
1578458769.9973423,-866.69921875,-978.515625,-874.51171875,-744.62890625,-1000.0
1578458769.9973423,-860.83984375,-989.2578125,-712.890625,357.421875,-925.29296875
1578458770.0442173,-862.79296875,-1000.0,-771.97265625,-1000.0,-704.58984375
1578458770.0442173,-865.234375,-997.0703125,-905.2734375,-295.8984375,-941.89453125
1578458770.0442173,-863.76953125,-971.6796875,-842.7734375,-805.6640625,-1000.0
1578458770.0442173,-865.72265625,-977.05078125,-734.86328125,591.30859375,-749.51171875
1578458770.0442173,-868.65234375,-1000.0,-783.69140625,-1000.0,-534.1796875
1578458770.0442173,-865.234375,-1000.0,-762.20703125,-341.30859375,-471.6796875
1578458770.0442173,-865.72265625,-979.00390625,-714.35546875,-989.2578125,-329.58984375
1578458770.0442173,-869.140625,-980.46875,-509.765625,-875.0,115.234375
1578458770.0442173,-871.09375,-1000.0,-474.609375,-77.1484375,551.26953125
1578458770.0442173,-869.140625,-1000.0,-883.7890625,-929.19921875,-706.54296875
1578458770.0442173,-864.74609375,-985.3515625,-870.1171875,554.19921875,-1000.0
1578458770.0442173,-866.2109375,-969.23828125,-741.2109375,-761.23046875,-292.48046875
1578458770.0910923,-866.2109375,-986.81640625,-842.7734375,100.5859375,-553.22265625
1578458770.0910923,-866.2109375,-1000.0,-852.05078125,-1000.0,-1000.0
1578458770.0910923,-866.2109375,-990.72265625,-713.37890625,75.68359375,-946.2890625
1578458770.0910923,-868.1640625,-971.6796875,-722.16796875,-740.234375,-579.1015625
1578458770.0910923,-866.2109375,-979.4921875,-835.44921875,262.6953125,-784.1796875
1578458770.0910923,-866.2109375,-998.53515625,-788.57421875,-1000.0,-697.265625
1578458770.0910923,-862.79296875,-997.0703125,-651.85546875,-250.0,-317.87109375
1578458770.0910923,-866.69921875,-978.515625,-448.2421875,-820.80078125,447.75390625
1578458770.0910923,-874.51171875,-974.12109375,-662.59765625,642.08984375,196.2890625
1578458770.0910923,-866.69921875,-989.74609375,-959.47265625,-986.328125,-1000.0
1578458770.0910923,-862.3046875,-989.74609375,-816.40625,-445.3125,-896.97265625
1578458770.0910923,-863.76953125,-957.51953125,-751.953125,-979.4921875,-650.87890625
1578458770.1379673,-866.2109375,-942.87109375,-870.1171875,-948.2421875,-982.421875
1578458770.1379673,-864.2578125,-970.21484375,-889.6484375,-263.671875,-932.12890625
1578458770.1379673,-866.69921875,-980.95703125,-792.96875,-1000.0,-361.81640625
1578458770.1379673,-869.62890625,-958.984375,-770.99609375,309.08203125,-440.91796875
1578458770.1379673,-868.65234375,-953.125,-748.046875,-739.74609375,-958.0078125
1578458770.1379673,-868.1640625,-975.5859375,-723.14453125,135.25390625,-681.640625
1578458770.1379673,-863.76953125,-993.65234375,-522.94921875,-1000.0,172.36328125
1578458770.1379673,-868.65234375,-980.46875,-457.03125,145.01953125,668.9453125
1578458770.1379673,-870.1171875,-951.171875,-804.19921875,-743.1640625,-557.12890625
1578458770.1379673,-862.79296875,-958.984375,-839.35546875,268.5546875,-1000.0
1578458770.1379673,-863.28125,-989.74609375,-788.0859375,-1000.0,-545.8984375
1578458770.1379673,-865.72265625,-985.3515625,-855.95703125,-351.07421875,-586.42578125
1578458770.1848423,-865.234375,-952.1484375,-888.671875,-898.92578125,-1000.0
1578458770.1848423,-862.79296875,-953.61328125,-784.66796875,805.6640625,-997.0703125
1578458770.1848423,-863.28125,-985.3515625,-730.46875,-778.3203125,-686.5234375
1578458770.1848423,-865.234375,-981.93359375,-843.75,-798.33984375,-840.33203125
1578458770.1848423,-865.72265625,-949.70703125,-850.09765625,715.33203125,-653.80859375
1578458770.1848423,-860.83984375,-944.82421875,-668.9453125,-816.40625,-319.3359375
1578458770.1848423,-862.79296875,-972.16796875,-495.60546875,130.37109375,408.69140625
1578458770.1848423,-869.62890625,-983.88671875,-633.7890625,-1000.0,244.62890625
1578458770.1848423,-867.67578125,-958.49609375,-852.05078125,-22.94921875,-1000.0
1578458770.1848423,-864.2578125,-939.453125,-718.26171875,-754.8828125,-960.44921875
1578458770.1848423,-868.1640625,-955.56640625,-618.65234375,159.66796875,-796.38671875
1578458770.1848423,-869.62890625,-971.6796875,-854.4921875,-1000.0,-949.70703125
1578458770.2317173,-865.72265625,-959.47265625,-891.6015625,-263.18359375,-1000.0
1578458770.2317173,-863.76953125,-934.08203125,-750.9765625,-808.10546875,-725.09765625
1578458770.2317173,-864.2578125,-944.3359375,-754.8828125,310.546875,-486.81640625
1578458770.2317173,-865.234375,-972.16796875,-882.8125,-1000.0,-967.28515625
1578458770.2317173,-863.28125,-974.12109375,-858.3984375,-489.74609375,-1000.0
1578458770.2317173,-860.83984375,-952.63671875,-685.546875,-968.75,-73.73046875
1578458770.2317173,-863.28125,-954.58984375,-599.609375,840.33203125,694.3359375
1578458770.2317173,-868.1640625,-976.07421875,-734.86328125,-742.67578125,-281.25
1578458770.2317173,-867.1875,-973.6328125,-878.90625,-938.4765625,-1000.0
1578458770.2317173,-861.81640625,-959.9609375,-565.91796875,611.81640625,-272.4609375
1578458770.2317173,-868.65234375,-950.68359375,-484.375,-859.86328125,61.5234375
1578458770.2317173,-870.1171875,-961.9140625,-876.46484375,-218.26171875,-1000.0
1578458770.2785923,-864.2578125,-980.46875,-878.41796875,-1000.0,-1000.0
1578458770.2785923,-866.69921875,-960.9375,-770.01953125,78.125,-523.92578125
1578458770.2785923,-868.65234375,-934.08203125,-815.91796875,-767.08984375,-644.53125
1578458770.2785923,-865.234375,-941.89453125,-884.765625,169.921875,-1000.0
1578458770.2785923,-862.3046875,-967.28515625,-833.984375,-1000.0,-1000.0
1578458770.2785923,-866.2109375,-965.8203125,-690.91796875,-269.53125,-188.4765625
1578458770.2785923,-871.58203125,-938.96484375,-666.015625,-812.5,387.6953125
1578458770.2785923,-869.62890625,-935.05859375,-807.12890625,308.59375,-504.39453125
1578458770.2785923,-863.76953125,-967.7734375,-767.08984375,-1000.0,-1000.0
1578458770.2785923,-864.2578125,-969.23828125,-690.4296875,-751.953125,225.09765625
1578458770.2785923,-866.69921875,-931.640625,-837.890625,853.515625,271.97265625
1578458770.2785923,-865.234375,-926.26953125,-886.71875,749.51171875,-1000.0
1578458770.3254673,-859.86328125,-961.42578125,-664.55078125,-784.66796875,-875.9765625
1578458770.3254673,-864.74609375,-975.5859375,-465.33203125,-1000.0,-652.34375
1578458770.3254673,-872.55859375,-937.5,-757.8125,79.58984375,-934.5703125
1578458770.3254673,-866.2109375,-920.41015625,-897.94921875,-828.61328125,-1000.0
1578458770.3254673,-862.3046875,-949.70703125,-715.8203125,-80.56640625,-695.80078125
1578458770.3254673,-866.69921875,-967.28515625,-661.1328125,-1000.0,83.49609375
1578458770.3254673,-866.2109375,-940.91796875,-728.515625,-203.61328125,-37.109375
1578458770.3254673,-863.28125,-914.55078125,-761.71875,-814.453125,-879.8828125
1578458770.3254673,-862.3046875,-934.08203125,-565.91796875,304.19921875,-412.109375
1578458770.3254673,-868.65234375,-957.51953125,-516.6015625,-1000.0,-73.2421875
1578458770.3254673,-870.1171875,-934.5703125,-885.7421875,-448.73046875,-1000.0
1578458770.3254673,-864.74609375,-908.203125,-873.53515625,-874.0234375,-1000.0
1578458770.3723423,-865.234375,-914.0625,-776.3671875,393.5546875,-51.26953125
1578458770.3723423,-867.1875,-936.03515625,-883.30078125,-1000.0,473.14453125
1578458770.3723423,-867.1875,-934.08203125,-930.17578125,-810.05859375,-937.98828125
1578458770.3723423,-864.2578125,-911.62109375,-783.203125,709.9609375,-1000.0
1578458770.3723423,-864.2578125,-904.78515625,-702.63671875,993.65234375,-209.47265625
1578458770.3723423,-866.2109375,-925.78125,-741.2109375,-473.14453125,-6.8359375
1578458770.3723423,-868.65234375,-939.94140625,-765.625,-1000.0,-512.20703125
1578458770.3723423,-863.76953125,-921.38671875,-659.1796875,83.984375,-585.44921875
1578458770.3723423,-865.234375,-895.5078125,-627.9296875,-821.77734375,240.72265625
1578458770.3723423,-869.62890625,-904.78515625,-840.8203125,-67.3828125,180.6640625
1578458770.3723423,-866.69921875,-930.17578125,-951.171875,-1000.0,-1000.0
1578458770.3723423,-859.375,-923.828125,-739.74609375,-230.95703125,-882.8125
1578458770.4192173,-863.28125,-897.4609375,-433.10546875,-826.171875,-665.0390625
1578458770.4192173,-871.09375,-884.765625,-709.47265625,216.796875,-934.5703125
1578458770.4192173,-864.74609375,-912.59765625,-922.36328125,-1000.0,-1000.0
1578458770.4192173,-865.72265625,-919.43359375,-804.6875,-552.734375,-551.7578125
1578458770.4192173,-866.69921875,-888.18359375,-777.34375,-973.6328125,-176.26953125
1578458770.4192173,-863.28125,-892.578125,-729.00390625,445.3125,-467.28515625
1578458770.4192173,-864.2578125,-922.8515625,-738.28125,-1000.0,-544.921875
1578458770.4192173,-863.28125,-927.24609375,-554.19921875,-884.765625,-25.390625
1578458770.4192173,-867.67578125,-898.4375,-473.6328125,748.046875,-24.4140625
1578458770.4192173,-869.62890625,-869.62890625,-851.5625,589.35546875,-991.2109375
1578458770.4192173,-864.2578125,-890.13671875,-873.046875,-898.4375,-1000.0
1578458770.4192173,-865.234375,-901.3671875,-785.15625,-1000.0,-190.91796875
1578458770.4660923,-866.69921875,-868.65234375,-843.75,-175.29296875,615.234375
1578458770.4660923,-866.2109375,-846.19140625,-879.8828125,932.6171875,-769.04296875
1578458770.4660923,-862.79296875,-863.28125,-810.05859375,-384.27734375,-1000.0
1578458770.4660923,-863.76953125,-890.13671875,-764.6484375,-1000.0,-708.984375
1578458770.4660923,-867.1875,-876.953125,-826.171875,-650.87890625,-820.80078125
1578458770.4660923,-863.28125,-849.609375,-748.53515625,878.41796875,-402.83203125
1578458770.4660923,-861.81640625,-860.83984375,-634.765625,196.2890625,-344.7265625
1578458770.4660923,-864.74609375,-892.08984375,-476.07421875,-1000.0,305.17578125
1578458770.4660923,-870.1171875,-877.9296875,-649.4140625,-1000.0,243.1640625
1578458770.4660923,-867.67578125,-844.7265625,-783.203125,296.875,-1000.0
1578458770.4660923,-866.2109375,-847.16796875,-679.6875,305.17578125,-925.29296875
1578458770.4660923,-866.69921875,-873.046875,-792.48046875,-1000.0,-722.16796875
1578458770.5129673,-868.1640625,-875.48828125,-916.015625,-1000.0,-947.265625
1578458770.5129673,-866.69921875,-853.02734375,-876.953125,-91.30859375,-1000.0
1578458770.5129673,-865.234375,-844.23828125,-752.9296875,503.90625,-766.11328125
1578458770.5129673,-867.1875,-859.86328125,-792.96875,-894.53125,-560.05859375
1578458770.5129673,-866.69921875,-871.09375,-884.765625,-1000.0,-913.57421875
1578458770.5129673,-862.79296875,-848.6328125,-794.921875,-323.73046875,-550.29296875
1578458770.5129673,-861.81640625,-832.51953125,-483.3984375,-926.26953125,262.20703125
1578458770.5129673,-868.65234375,-850.5859375,-443.84765625,30.2734375,644.53125
1578458770.5129673,-871.09375,-864.74609375,-859.375,-1000.0,-561.5234375
1578458770.5129673,-865.72265625,-857.421875,-881.34765625,-815.4296875,-810.05859375
1578458770.5129673,-865.234375,-836.42578125,-758.7890625,700.1953125,-298.828125
1578458770.5129673,-867.1875,-834.9609375,-754.39453125,194.82421875,-723.6328125
1578458770.5598423,-866.69921875,-861.328125,-810.05859375,-1000.0,-1000.0
1578458770.5598423,-865.234375,-859.86328125,-826.171875,-1000.0,-1000.0
1578458770.5598423,-864.74609375,-834.47265625,-748.53515625,345.21484375,-591.796875
1578458770.5598423,-865.234375,-832.03125,-808.59375,354.4921875,-724.12109375
1578458770.5598423,-865.72265625,-855.95703125,-862.3046875,-1000.0,-1000.0
1578458770.5598423,-861.328125,-872.55859375,-731.4453125,-1000.0,-549.8046875
1578458770.5598423,-865.234375,-857.91015625,-483.3984375,172.8515625,657.2265625
1578458770.5598423,-873.53515625,-837.890625,-667.48046875,619.140625,251.953125
1578458770.5598423,-867.1875,-854.00390625,-912.59765625,-866.2109375,-1000.0
1578458770.5598423,-863.28125,-872.0703125,-770.99609375,-1000.0,-911.1328125
1578458770.5598423,-867.67578125,-850.5859375,-728.02734375,-532.71484375,-664.55078125
1578458770.5598423,-867.67578125,-826.171875,-863.28125,797.36328125,-755.859375
1578458770.6067173,-863.76953125,-842.28515625,-882.32421875,-220.703125,-886.23046875
1578458770.6067173,-865.234375,-875.48828125,-799.8046875,-1000.0,-813.96484375
1578458770.6067173,-866.2109375,-866.69921875,-720.703125,-886.71875,-567.3828125
1578458770.6067173,-865.234375,-833.984375,-776.3671875,578.61328125,-927.734375
1578458770.6067173,-866.2109375,-832.03125,-848.6328125,229.00390625,-1000.0
1578458770.6067173,-864.74609375,-870.1171875,-727.5390625,-1000.0,-200.1953125
1578458770.6067173,-869.140625,-882.8125,-646.484375,-1000.0,618.1640625
1578458770.6067173,-871.58203125,-847.65625,-770.01953125,-30.76171875,-534.66796875
1578458770.6067173,-866.2109375,-831.0546875,-869.62890625,281.73828125,-1000.0
1578458770.6067173,-862.79296875,-869.62890625,-585.9375,-998.53515625,-445.80078125
1578458770.6067173,-869.62890625,-887.20703125,-573.2421875,-1000.0,-354.00390625
1578458770.6067173,-870.60546875,-850.09765625,-875.0,-242.1875,-1000.0
1578458770.6535923,-864.2578125,-836.42578125,-794.921875,653.3203125,-1000.0
1578458770.6535923,-864.74609375,-864.2578125,-743.65234375,-691.89453125,-575.68359375
1578458770.6535923,-866.69921875,-885.7421875,-851.5625,-1000.0,-295.41015625
1578458770.6535923,-866.2109375,-859.86328125,-894.53125,-778.80859375,-687.5
1578458770.6535923,-863.76953125,-840.33203125,-763.671875,673.828125,-1000.0
1578458770.6535923,-862.3046875,-856.93359375,-642.08984375,108.88671875,-126.953125
1578458770.6535923,-866.2109375,-879.8828125,-697.265625,-1000.0,256.8359375
1578458770.6535923,-868.65234375,-873.53515625,-733.88671875,-1000.0,-724.12109375
1578458770.6535923,-865.234375,-841.30859375,-640.13671875,375.9765625,-1000.0
1578458770.6535923,-866.69921875,-842.28515625,-442.87109375,398.4375,120.60546875
1578458770.6535923,-872.55859375,-865.72265625,-700.68359375,-1000.0,-5.859375
1578458770.6535923,-866.2109375,-871.09375,-959.9609375,-1000.0,-1000.0
1578458770.7004673,-865.72265625,-854.4921875,-797.8515625,33.203125,-780.2734375
1578458770.7004673,-870.60546875,-842.7734375,-769.04296875,462.40234375,-562.01171875
1578458770.7004673,-868.1640625,-869.140625,-880.859375,-947.75390625,-928.22265625
1578458770.7004673,-864.74609375,-895.5078125,-895.01953125,-1000.0,-1000.0
1578458770.7004673,-864.2578125,-875.48828125,-775.390625,-184.08203125,-505.37109375
1578458770.7004673,-865.72265625,-854.4921875,-658.69140625,-929.6875,255.859375
1578458770.7004673,-867.67578125,-873.046875,-688.4765625,-175.29296875,-143.5546875
1578458770.7004673,-867.67578125,-894.53125,-833.49609375,-1000.0,-403.3203125
1578458770.7004673,-864.2578125,-888.671875,-582.03125,-216.796875,224.609375
1578458770.7004673,-869.140625,-864.74609375,-452.1484375,-835.44921875,630.859375
1578458770.7004673,-871.58203125,-863.28125,-849.12109375,191.89453125,-687.5
1578458770.7004673,-864.74609375,-899.4140625,-878.90625,-1000.0,-1000.0
1578458770.7473423,-867.1875,-899.4140625,-770.5078125,-910.64453125,-526.85546875
1578458770.7473423,-870.1171875,-864.2578125,-821.77734375,658.69140625,-642.08984375
1578458770.7473423,-867.1875,-865.234375,-884.27734375,496.58203125,-1000.0
1578458770.7473423,-864.74609375,-907.71484375,-815.91796875,-1000.0,-1000.0
1578458770.7473423,-864.2578125,-918.45703125,-728.02734375,-953.61328125,-544.43359375
1578458770.7473423,-865.72265625,-892.578125,-693.84765625,490.234375,81.0546875
1578458770.7473423,-869.62890625,-889.6484375,-699.21875,-974.12109375,-172.36328125
1578458770.7473423,-867.1875,-918.9453125,-679.6875,-377.44140625,-953.125
1578458770.7473423,-865.72265625,-937.98828125,-499.0234375,-1000.0,122.55859375
1578458770.7473423,-872.0703125,-903.80859375,-697.265625,-219.23828125,298.828125
1578458770.7473423,-867.1875,-873.53515625,-853.515625,-854.98046875,-1000.0
1578458770.7473423,-866.2109375,-888.671875,-710.9375,147.94921875,-905.2734375
1578458770.7942173,-869.140625,-910.15625,-804.19921875,-1000.0,-645.01953125
1578458770.7942173,-867.1875,-895.01953125,-926.7578125,-578.125,-936.5234375
1578458770.7942173,-863.28125,-868.1640625,-882.32421875,-981.4453125,-1000.0
1578458770.7942173,-862.79296875,-878.90625,-769.53125,312.5,-668.45703125
1578458770.7942173,-867.1875,-913.0859375,-821.2890625,-1000.0,-340.33203125
1578458770.7942173,-864.2578125,-911.1328125,-807.12890625,-979.00390625,-208.49609375
1578458770.7942173,-865.72265625,-879.39453125,-743.65234375,479.4921875,-154.296875
1578458770.7942173,-867.67578125,-879.39453125,-530.2734375,914.0625,60.05859375
1578458770.7942173,-869.140625,-903.3203125,-482.421875,-584.47265625,590.8203125
1578458770.7942173,-869.62890625,-899.90234375,-890.625,-1000.0,-655.2734375
1578458770.7942173,-865.234375,-865.72265625,-890.13671875,-57.12890625,-999.0234375
1578458770.7942173,-865.72265625,-856.4453125,-766.11328125,793.45703125,-250.48828125
1578458770.8410923,-867.67578125,-890.13671875,-858.88671875,-630.37109375,-664.55078125
1578458770.8410923,-865.72265625,-917.48046875,-875.48828125,-1000.0,-1000.0
1578458770.8410923,-863.28125,-902.83203125,-746.09375,-262.6953125,-956.0546875
1578458770.8410923,-866.2109375,-877.9296875,-742.1875,-922.8515625,-541.015625
1578458770.8410923,-867.67578125,-881.34765625,-849.609375,-15.625,-746.58203125
1578458770.8410923,-866.2109375,-912.109375,-803.7109375,-1000.0,-705.56640625
1578458770.8410923,-864.2578125,-918.9453125,-641.6015625,-598.6328125,-262.6953125
1578458770.8410923,-868.65234375,-889.16015625,-646.484375,976.5625,532.2265625
1578458770.8410923,-870.60546875,-883.7890625,-837.40234375,292.96875,207.03125
1578458770.8410923,-867.67578125,-916.50390625,-957.03125,-1000.0,-1000.0
1578458770.8410923,-861.81640625,-932.12890625,-765.13671875,-781.25,-883.30078125
1578458770.8410923,-865.234375,-913.57421875,-461.9140625,841.30859375,-595.703125
1578458770.8879673,-874.0234375,-889.6484375,-731.4453125,451.66015625,-961.9140625
1578458770.8879673,-865.234375,-905.2734375,-954.58984375,-983.3984375,-975.5859375
1578458770.8879673,-864.2578125,-931.15234375,-775.87890625,-1000.0,-397.4609375
1578458770.8879673,-869.140625,-908.203125,-745.1171875,-156.73828125,-407.71484375
1578458770.8879673,-869.140625,-884.27734375,-797.8515625,979.00390625,-980.46875
1578458770.8879673,-866.2109375,-905.76171875,-791.015625,-333.984375,-594.23828125
1578458770.8879673,-865.234375,-937.01171875,-605.46875,-1000.0,299.31640625
1578458770.8879673,-869.140625,-916.015625,-524.4140625,-478.02734375,-19.53125
1578458770.8879673,-870.60546875,-868.65234375,-868.65234375,-996.09375,-976.07421875
1578458770.8879673,-867.1875,-876.46484375,-910.15625,108.88671875,-1000.0
1578458770.8879673,-867.67578125,-917.96875,-857.421875,-1000.0,-236.81640625
1578458770.8879673,-867.67578125,-914.0625,-917.96875,-941.40625,595.703125
1578458770.9348423,-866.69921875,-877.44140625,-944.3359375,568.84765625,-746.09375
1578458770.9348423,-865.234375,-877.44140625,-846.6796875,350.5859375,-1000.0
1578458770.9348423,-865.234375,-912.59765625,-797.8515625,-1000.0,-266.11328125
1578458770.9348423,-868.1640625,-919.43359375,-909.1796875,-1000.0,-444.3359375
1578458770.9348423,-866.69921875,-892.08984375,-921.875,-38.57421875,-755.859375
1578458770.9348423,-862.79296875,-892.08984375,-732.421875,904.78515625,-479.98046875
1578458770.9348423,-864.74609375,-917.48046875,-608.3984375,-481.4453125,265.13671875
1578458770.9348423,-870.60546875,-919.921875,-722.65625,-1000.0,245.1171875
1578458770.9348423,-870.60546875,-890.625,-879.39453125,-260.25390625,-1000.0
1578458770.9348423,-863.28125,-883.30078125,-777.83203125,-875.9765625,-976.5625
1578458770.9348423,-865.234375,-916.015625,-500.0,130.37109375,-831.54296875
1578458770.9348423,-873.046875,-927.734375,-747.0703125,-1000.0,-956.54296875
1578458770.9817173,-865.72265625,-911.62109375,-958.984375,-663.0859375,-1000.0
1578458770.9817173,-863.76953125,-885.7421875,-804.19921875,910.64453125,-783.203125
1578458770.9817173,-867.67578125,-884.27734375,-806.640625,188.96484375,-554.19921875
1578458770.9817173,-867.1875,-915.0390625,-933.10546875,-1000.0,-964.84375
1578458770.9817173,-864.2578125,-912.109375,-911.1328125,-990.72265625,-1000.0
1578458770.9817173,-863.28125,-886.71875,-736.328125,511.71875,-84.47265625
1578458770.9817173,-871.09375,-889.6484375,-645.01953125,431.15234375,557.12890625
1578458770.9817173,-874.0234375,-915.52734375,-813.4765625,-1000.0,-317.87109375
1578458770.9817173,-865.234375,-918.45703125,-948.73046875,-1000.0,-1000.0
1578458770.9817173,-862.79296875,-903.80859375,-607.421875,80.078125,-304.19921875
1578458770.9817173,-869.140625,-893.5546875,-525.390625,669.43359375,592.7734375
1578458770.9817173,-870.60546875,-907.71484375,-912.109375,-810.05859375,-763.671875
1578458771.0285923,-866.69921875,-935.05859375,-914.55078125,-1000.0,-1000.0
1578458771.0285923,-864.74609375,-916.50390625,-800.78125,-271.484375,-523.4375
1578458771.0285923,-867.67578125,-887.6953125,-846.19140625,-960.44921875,-670.41015625
1578458771.0285923,-868.65234375,-904.78515625,-930.6640625,-115.234375,-1000.0
1578458771.0285923,-864.2578125,-936.5234375,-872.55859375,-1000.0,-1000.0
1578458771.0285923,-863.76953125,-935.05859375,-727.5390625,-469.23828125,-215.33203125
1578458771.0285923,-867.67578125,-912.59765625,-699.21875,-943.359375,261.71875
1578458771.0285923,-869.140625,-908.203125,-843.75,235.3515625,-719.7265625
1578458771.0285923,-862.3046875,-943.84765625,-836.42578125,-1000.0,-1000.0
1578458771.0285923,-865.234375,-953.125,-541.9921875,-1000.0,219.23828125
1578458771.0285923,-874.51171875,-904.78515625,-724.12109375,373.53515625,250.9765625
1578458771.0285923,-867.1875,-893.06640625,-950.68359375,517.08984375,-1000.0
1578458771.0754673,-864.74609375,-931.15234375,-800.29296875,-977.05078125,-896.484375
1578458771.0754673,-868.65234375,-942.3828125,-815.91796875,-1000.0,-682.12890625
1578458771.0754673,-868.65234375,-912.109375,-942.87109375,-110.83984375,-934.08203125
1578458771.0754673,-866.69921875,-896.97265625,-922.8515625,-936.5234375,-1000.0
1578458771.0754673,-866.2109375,-927.734375,-801.7578125,-270.5078125,-716.796875
1578458771.0754673,-866.69921875,-955.078125,-746.58203125,-1000.0,61.5234375
1578458771.0754673,-865.72265625,-930.6640625,-761.23046875,-130.37109375,41.9921875
1578458771.0754673,-864.74609375,-899.90234375,-794.921875,-848.6328125,-864.74609375
1578458771.0754673,-864.74609375,-922.36328125,-612.3046875,263.18359375,-498.53515625
1578458771.0754673,-867.67578125,-949.70703125,-553.7109375,-1000.0,585.9375
1578458771.0754673,-869.140625,-924.8046875,-918.45703125,-598.6328125,-639.6484375
1578458771.0754673,-863.76953125,-891.6015625,-919.43359375,-973.6328125,-1000.0
1578458771.1223423,-864.74609375,-897.94921875,-820.80078125,339.35546875,-397.4609375
1578458771.1223423,-867.1875,-933.59375,-917.48046875,-1000.0,-505.859375
1578458771.1223423,-866.69921875,-939.453125,-976.07421875,-997.55859375,-1000.0
1578458771.1223423,-866.69921875,-911.1328125,-812.98828125,497.55859375,-1000.0
1578458771.1223423,-866.69921875,-904.296875,-700.1953125,792.96875,-451.171875
1578458771.1223423,-865.234375,-928.22265625,-783.203125,-746.58203125,-130.859375
1578458771.1223423,-865.234375,-943.359375,-808.10546875,-1000.0,-304.6875
1578458771.1223423,-864.2578125,-922.8515625,-731.4453125,-63.4765625,-403.80859375
1578458771.1223423,-865.72265625,-904.78515625,-506.8359375,-897.94921875,314.94140625
1578458771.1223423,-872.55859375,-917.96875,-728.02734375,-176.26953125,215.8203125
1578458771.1223423,-866.69921875,-945.80078125,-1000.0,-1000.0,-1000.0
1578458771.1223423,-863.28125,-939.453125,-880.859375,-246.09375,-885.7421875
1578458771.1692173,-866.69921875,-916.9921875,-824.70703125,-842.28515625,-646.484375
1578458771.1692173,-867.1875,-929.6875,-943.84765625,213.37890625,-925.78125
1578458771.1692173,-865.234375,-964.35546875,-978.02734375,-1000.0,-1000.0
1578458771.1692173,-865.72265625,-965.8203125,-875.9765625,-527.83203125,-448.73046875
1578458771.1692173,-867.67578125,-926.26953125,-837.40234375,-961.9140625,10.7421875
1578458771.1692173,-867.67578125,-921.875,-800.78125,513.18359375,-550.78125
1578458771.1692173,-868.65234375,-956.54296875,-810.546875,-1000.0,-641.11328125
1578458771.1692173,-865.234375,-968.75,-616.69921875,-786.1328125,-82.03125
1578458771.1692173,-868.1640625,-936.5234375,-528.3203125,840.8203125,620.1171875
1578458771.1692173,-870.1171875,-913.0859375,-902.83203125,785.15625,-586.9140625
1578458771.1692173,-865.72265625,-945.80078125,-939.453125,-691.89453125,-1000.0
1578458771.1692173,-867.1875,-971.6796875,-862.79296875,-1000.0,-630.37109375
1578458771.2160923,-867.1875,-941.40625,-922.8515625,-179.19921875,-714.35546875
1578458771.2160923,-869.140625,-910.15625,-961.42578125,-876.46484375,-1000.0
1578458771.2160923,-869.62890625,-929.19921875,-889.16015625,-15.13671875,-986.81640625
1578458771.2160923,-867.67578125,-955.078125,-831.0546875,-1000.0,-728.515625
1578458771.2160923,-867.1875,-936.03515625,-895.99609375,-375.48828125,-759.765625
1578458771.2160923,-866.2109375,-905.76171875,-825.1953125,-884.765625,-538.57421875
1578458771.2160923,-864.74609375,-921.38671875,-714.84375,267.578125,-487.79296875
1578458771.2160923,-867.1875,-967.28515625,-549.31640625,-1000.0,311.03515625
1578458771.2160923,-873.046875,-958.984375,-722.65625,-822.265625,254.39453125
1578458771.2160923,-867.1875,-916.50390625,-878.41796875,775.390625,-1000.0
1578458771.2160923,-867.67578125,-915.52734375,-764.6484375,638.671875,-978.02734375
1578458771.2160923,-870.60546875,-941.89453125,-863.28125,-884.27734375,-824.70703125
1578458771.2629673,-867.67578125,-948.2421875,-985.3515625,-1000.0,-951.66015625
1578458771.2629673,-866.2109375,-918.9453125,-953.125,85.44921875,-1000.0
1578458771.2629673,-866.69921875,-905.76171875,-827.1484375,933.10546875,-798.33984375
1578458771.2629673,-869.62890625,-932.12890625,-860.3515625,-523.92578125,-587.40234375
1578458771.2629673,-867.67578125,-955.56640625,-950.68359375,-1000.0,-916.50390625
1578458771.2629673,-865.72265625,-943.84765625,-860.83984375,-204.1015625,-550.29296875
1578458771.2629673,-866.2109375,-925.29296875,-561.5234375,-842.7734375,222.16796875
1578458771.2629673,-871.58203125,-940.91796875,-520.5078125,214.84375,652.34375
1578458771.2629673,-872.0703125,-962.890625,-935.05859375,-1000.0,-488.76953125
1578458771.2629673,-867.67578125,-954.58984375,-976.5625,-485.3515625,-903.3203125
1578458771.2629673,-867.67578125,-920.8984375,-813.96484375,-905.76171875,-406.25
1578458771.2629673,-867.1875,-916.9921875,-759.765625,325.68359375,-716.796875
1578458771.3098423,-867.67578125,-946.2890625,-875.9765625,-1000.0,-1000.0
1578458771.3098423,-867.67578125,-952.63671875,-918.45703125,-860.3515625,-1000.0
1578458771.3098423,-866.2109375,-918.45703125,-824.21875,724.609375,-603.02734375
1578458771.3098423,-867.67578125,-903.3203125,-874.0234375,714.35546875,-731.4453125
1578458771.3098423,-868.65234375,-931.15234375,-936.03515625,-949.70703125,-1000.0
1578458771.3098423,-864.2578125,-956.0546875,-826.66015625,-964.35546875,-537.59765625
1578458771.3098423,-867.67578125,-930.17578125,-549.31640625,517.578125,603.515625
1578458771.3098423,-872.55859375,-897.4609375,-708.49609375,-867.67578125,244.62890625
1578458771.3098423,-867.67578125,-920.8984375,-972.65625,-179.19921875,-1000.0
1578458771.3098423,-865.234375,-944.3359375,-833.0078125,-1000.0,-979.4921875
1578458771.3098423,-868.65234375,-915.52734375,-770.99609375,-220.21484375,-571.2890625
1578458771.3098423,-868.1640625,-884.27734375,-902.83203125,-822.75390625,-395.5078125
1578458771.3567173,-865.234375,-896.484375,-933.59375,229.4921875,-833.49609375
1578458771.3567173,-865.72265625,-931.640625,-836.9140625,-1000.0,-907.2265625
1578458771.3567173,-868.65234375,-928.22265625,-739.2578125,-352.05078125,-654.296875
1578458771.3567173,-870.60546875,-884.765625,-824.21875,-844.23828125,-921.38671875
1578458771.3567173,-867.1875,-886.71875,-896.484375,414.55078125,-1000.0
1578458771.3567173,-864.74609375,-932.12890625,-761.23046875,-1000.0,-404.78515625
1578458771.3567173,-866.69921875,-940.91796875,-691.40625,-788.0859375,572.75390625
1578458771.3567173,-867.67578125,-897.94921875,-818.359375,732.91015625,-448.73046875
1578458771.3567173,-867.1875,-880.859375,-915.52734375,991.2109375,-1000.0
1578458771.3567173,-865.72265625,-921.875,-637.6953125,-444.82421875,-484.375
1578458771.3567173,-870.1171875,-934.5703125,-612.3046875,-1000.0,-379.39453125
1578458771.3567173,-870.60546875,-899.4140625,-908.203125,-60.05859375,-1000.0
1578458771.4035923,-866.69921875,-882.32421875,-840.8203125,-800.78125,-1000.0
1578458771.4035923,-868.1640625,-898.4375,-782.2265625,166.9921875,-590.33203125
1578458771.4035923,-868.65234375,-919.921875,-875.9765625,-1000.0,-278.80859375
1578458771.4035923,-868.65234375,-900.87890625,-931.640625,-258.7890625,-800.29296875
1578458771.4035923,-865.72265625,-870.60546875,-791.9921875,-806.640625,-1000.0
1578458771.4035923,-865.72265625,-887.20703125,-608.88671875,274.4140625,-150.87890625
1578458771.4035923,-870.60546875,-919.43359375,-693.359375,-1000.0,153.3203125
1578458771.4035923,-872.55859375,-904.296875,-785.64453125,-458.0078125,-773.4375
1578458771.4035923,-866.2109375,-861.81640625,-700.1953125,-891.6015625,-1000.0
1578458771.4035923,-867.1875,-867.1875,-483.88671875,559.08203125,99.12109375
1578458771.4035923,-874.51171875,-891.11328125,-721.6796875,-949.21875,10.7421875
1578458771.4035923,-869.140625,-891.11328125,-996.09375,-1000.0,-1000.0
1578458771.4504673,-867.1875,-869.62890625,-833.49609375,380.37109375,-818.84765625
1578458771.4504673,-868.65234375,-851.5625,-794.921875,999.0234375,-599.12109375
1578458771.4504673,-867.1875,-876.953125,-906.25,-484.375,-914.55078125
1578458771.4504673,-865.72265625,-906.73828125,-922.8515625,-1000.0,-1000.0
1578458771.4504673,-863.28125,-889.16015625,-809.5703125,-105.46875,-571.77734375
1578458771.4504673,-865.234375,-866.2109375,-701.171875,-812.98828125,409.1796875
1578458771.4504673,-867.67578125,-879.8828125,-703.61328125,151.85546875,-105.46875
1578458771.4504673,-866.2109375,-907.2265625,-823.2421875,-1000.0,-687.98828125
1578458771.4504673,-864.2578125,-898.4375,-598.6328125,-246.58203125,-33.69140625
1578458771.4504673,-869.140625,-864.74609375,-474.12109375,-812.5,576.66015625
1578458771.4504673,-871.58203125,-855.95703125,-859.86328125,238.28125,-675.78125
1578458771.4504673,-867.1875,-887.6953125,-892.08984375,-1000.0,-1000.0
1578458771.4973423,-868.1640625,-893.06640625,-792.48046875,-739.74609375,-565.4296875
1578458771.4973423,-868.1640625,-857.91015625,-844.23828125,870.60546875,-687.5
1578458771.4973423,-865.234375,-844.23828125,-896.97265625,643.06640625,-1000.0
1578458771.4973423,-863.76953125,-884.765625,-836.42578125,-1000.0,-1000.0
1578458771.4973423,-865.72265625,-909.1796875,-704.1015625,-890.625,-634.27734375
1578458771.4973423,-869.140625,-880.859375,-679.19921875,618.65234375,-189.453125
1578458771.4973423,-868.65234375,-862.3046875,-711.42578125,-854.4921875,-250.48828125
1578458771.4973423,-865.72265625,-889.6484375,-693.359375,-125.0,-877.44140625
1578458771.4973423,-864.74609375,-923.33984375,-510.25390625,-1000.0,65.4296875
1578458771.4973423,-871.58203125,-899.90234375,-695.80078125,-203.125,284.66796875
1578458771.4973423,-867.67578125,-873.53515625,-859.375,-812.5,-1000.0
1578458771.4973423,-864.2578125,-895.99609375,-718.26171875,224.12109375,-933.10546875
1578458771.5442173,-866.69921875,-929.19921875,-815.4296875,-1000.0,-714.84375
1578458771.5442173,-867.1875,-918.45703125,-934.08203125,-324.70703125,-933.10546875
1578458771.5442173,-866.2109375,-886.23046875,-874.0234375,-827.1484375,-1000.0
1578458771.5442173,-865.72265625,-896.484375,-755.37109375,487.3046875,-778.80859375
1578458771.5442173,-867.1875,-936.5234375,-799.31640625,-1000.0,-213.8671875
1578458771.5442173,-867.67578125,-938.96484375,-775.390625,-422.36328125,-212.40234375
1578458771.5442173,-869.140625,-895.99609375,-731.93359375,920.8984375,-381.8359375
1578458771.5442173,-865.72265625,-887.20703125,-528.80859375,-881.8359375,-49.31640625
1578458771.5442173,-869.140625,-924.8046875,-473.6328125,-82.51953125,539.55078125
1578458771.5442173,-871.58203125,-925.29296875,-881.34765625,-1000.0,-649.90234375
1578458771.5442173,-866.69921875,-899.90234375,-898.4375,198.2421875,-1000.0
1578458771.5442173,-868.1640625,-886.23046875,-777.34375,-770.99609375,-390.625
1578458771.5910923,-870.1171875,-901.85546875,-852.5390625,21.97265625,-756.34765625
1578458771.5910923,-867.67578125,-932.6171875,-868.1640625,-1000.0,-1000.0
1578458771.5910923,-866.2109375,-922.8515625,-746.09375,-170.41015625,-963.8671875
1578458771.5910923,-868.1640625,-888.671875,-743.1640625,-791.50390625,-632.32421875
1578458771.5910923,-869.140625,-901.3671875,-844.7265625,223.14453125,-787.109375
1578458771.5910923,-868.1640625,-939.94140625,-790.0390625,-1000.0,-632.8125
1578458771.5910923,-864.74609375,-937.01171875,-685.546875,-307.12890625,-424.31640625
1578458771.5910923,-865.72265625,-908.69140625,-478.02734375,-827.63671875,324.21875
1578458771.5910923,-875.48828125,-900.390625,-639.16015625,489.74609375,220.21484375
1578458771.5910923,-869.140625,-924.31640625,-953.125,-1000.0,-1000.0
1578458771.5910923,-864.74609375,-928.7109375,-823.73046875,-552.24609375,-926.26953125
1578458771.5910923,-867.1875,-897.4609375,-769.53125,978.515625,-688.4765625
1578458771.6379673,-867.67578125,-884.27734375,-896.97265625,980.95703125,-971.19140625
1578458771.6379673,-866.69921875,-907.71484375,-916.50390625,-393.06640625,-979.00390625
1578458771.6379673,-866.69921875,-923.33984375,-817.87109375,-1000.0,-516.11328125
1578458771.6379673,-867.67578125,-897.4609375,-795.41015625,74.70703125,-530.76171875
1578458771.6379673,-865.72265625,-872.0703125,-771.484375,-764.6484375,-938.4765625
1578458771.6379673,-866.69921875,-887.6953125,-751.953125,163.0859375,-665.52734375
1578458771.6379673,-864.74609375,-922.8515625,-569.82421875,-1000.0,-14.6484375
1578458771.6379673,-870.60546875,-911.62109375,-479.00390625,-76.171875,626.46484375
1578458771.6379673,-874.0234375,-866.2109375,-818.84765625,-770.01953125,-445.3125
1578458771.6379673,-866.69921875,-871.09375,-869.140625,240.72265625,-1000.0
1578458771.6379673,-867.67578125,-915.52734375,-807.6171875,-1000.0,-562.01171875
1578458771.6379673,-868.1640625,-916.9921875,-864.2578125,-452.1484375,-591.30859375
1578458771.6848423,-868.1640625,-876.46484375,-901.3671875,-933.59375,-1000.0
1578458771.6848423,-867.67578125,-880.859375,-809.08203125,755.859375,-1000.0
1578458771.6848423,-867.67578125,-923.33984375,-750.0,-840.33203125,-684.08203125
1578458771.6848423,-869.62890625,-929.19921875,-856.4453125,-884.27734375,-839.35546875
1578458771.6848423,-867.67578125,-892.578125,-869.62890625,586.42578125,-676.26953125
1578458771.6848423,-864.2578125,-883.30078125,-693.359375,-797.36328125,-443.359375
1578458771.6848423,-866.2109375,-914.55078125,-458.984375,145.5078125,285.15625
1578458771.6848423,-870.60546875,-920.8984375,-587.890625,-1000.0,277.83203125
1578458771.6848423,-869.140625,-891.6015625,-854.00390625,-43.45703125,-1000.0
1578458771.6848423,-865.72265625,-873.53515625,-771.97265625,-751.953125,-980.46875
1578458771.6848423,-867.67578125,-891.6015625,-688.96484375,191.89453125,-829.1015625
1578458771.6848423,-871.58203125,-916.50390625,-815.4296875,-1000.0,-959.9609375
1578458771.7317173,-869.62890625,-902.34375,-876.953125,-268.5546875,-1000.0
1578458771.7317173,-866.2109375,-874.51171875,-761.23046875,-807.12890625,-816.40625
1578458771.7317173,-867.1875,-884.765625,-748.046875,444.82421875,-595.703125
1578458771.7317173,-868.1640625,-912.109375,-878.41796875,-1000.0,-956.54296875
1578458771.7317173,-866.2109375,-912.59765625,-859.375,-416.9921875,-1000.0
1578458771.7317173,-864.2578125,-893.06640625,-677.24609375,-957.51953125,-154.78515625
1578458771.7317173,-867.67578125,-889.6484375,-610.83984375,964.84375,620.60546875
1578458771.7317173,-869.62890625,-910.15625,-793.9453125,-576.171875,-333.984375
1578458771.7317173,-866.69921875,-917.96875,-909.66796875,-816.40625,-1000.0
1578458771.7317173,-868.1640625,-903.80859375,-560.546875,746.09375,-435.05859375
1578458771.7317173,-873.046875,-894.53125,-486.328125,-824.21875,-164.0625
1578458771.7317173,-872.0703125,-909.1796875,-873.53515625,-3.41796875,-934.08203125
