timestamp,eeg1,eeg2,eeg3,eeg4,eeg5(aux)
1574109824.4057648,0.0,0.0,0.0,0.0,0.0
1574109824.4057648,0.0,0.48828125,0.0,-0.48828125,0.0
1574109824.4057648,-6.8359375,-33.203125,-32.2265625,-0.9765625,0.0
1574109824.4057648,17.578125,78.125,70.3125,1.46484375,0.0
1574109824.4057648,-78.61328125,-410.64453125,-396.97265625,-11.71875,0.0
1574109824.4057648,-157.71484375,-955.078125,-1000.0,-24.4140625,0.0
1574109824.4057648,-16.11328125,-800.78125,-983.3984375,-33.203125,0.0
1574109824.4057648,-131.34765625,-980.46875,-998.046875,-29.78515625,0.0
1574109824.4057648,-198.2421875,-871.58203125,-947.75390625,-20.5078125,0.0
1574109824.4057648,-16.11328125,-512.20703125,-732.421875,-13.18359375,0.0
1574109824.4057648,37.59765625,-500.0,-778.3203125,-18.06640625,0.0
1574109824.4057648,-115.72265625,-835.44921875,-981.4453125,-29.296875,0.0
1574109824.4526398,-181.15234375,-958.0078125,-1000.0,-25.390625,0.0
1574109824.4526398,-12.6953125,-566.40625,-792.48046875,-9.27734375,-0.48828125
1574109824.4526398,35.64453125,-426.7578125,-694.3359375,2.44140625,-4.39453125
1574109824.4526398,-119.140625,-863.76953125,-961.9140625,-13.671875,11.71875
1574109824.4526398,-116.2109375,-854.98046875,-968.75,-25.390625,-59.08203125
1574109824.4526398,-114.74609375,-864.74609375,-964.84375,-14.6484375,-98.14453125
1574109824.4526398,-121.09375,-997.55859375,-993.1640625,-11.71875,-84.9609375
1574109824.4526398,-373.53515625,-1000.0,-1000.0,-2.44140625,-124.0234375
1574109824.4526398,-492.67578125,-818.359375,-916.50390625,-11.23046875,-48.33984375
1574109824.4526398,29.296875,-59.5703125,-402.83203125,-50.78125,2.44140625
1574109824.4526398,72.75390625,-171.875,-488.76953125,-29.296875,47.8515625
1574109824.4526398,-52.734375,-679.6875,-902.83203125,-7.8125,119.62890625
1574109824.4995148,46.38671875,-367.67578125,-695.3125,-19.04296875,54.6875
1574109824.4995148,122.0703125,-25.390625,-425.29296875,-23.92578125,-25.87890625
1574109824.4995148,31.25,-313.4765625,-589.35546875,-2.44140625,68.84765625
1574109824.4995148,-78.125,-734.375,-913.57421875,1.46484375,33.203125
1574109824.4995148,4.8828125,-533.69140625,-834.9609375,-27.34375,58.59375
1574109824.4995148,-35.64453125,-823.2421875,-953.61328125,-25.87890625,227.5390625
1574109824.4995148,-153.3203125,-1000.0,-1000.0,-5.859375,314.453125
1574109824.4995148,-433.10546875,-980.46875,-997.0703125,0.48828125,489.2578125
1574109824.4995148,-259.765625,-666.9921875,-876.953125,-37.59765625,434.5703125
1574109824.4995148,23.4375,-655.76171875,-908.203125,-48.828125,46.875
1574109824.4995148,-114.2578125,-964.35546875,-1000.0,-13.18359375,-44.43359375
1574109824.4995148,-28.80859375,-475.09765625,-655.2734375,-7.32421875,111.81640625
1574109824.5463898,123.53515625,-49.8046875,-433.10546875,-36.62109375,129.39453125
1574109824.5463898,98.14453125,-262.6953125,-674.8046875,-31.73828125,-11.23046875
1574109824.5463898,-32.2265625,-639.6484375,-833.49609375,-3.90625,12.20703125
1574109824.5463898,-20.99609375,-470.21484375,-663.57421875,-5.859375,117.1875
1574109824.5463898,48.33984375,-287.109375,-620.60546875,-16.6015625,132.8125
1574109824.5463898,-37.109375,-878.41796875,-975.5859375,-25.87890625,106.93359375
1574109824.5463898,-369.140625,-1000.0,-1000.0,-14.6484375,168.9453125
1574109824.5463898,-455.078125,-716.30859375,-810.05859375,-15.625,389.16015625
1574109824.5463898,38.0859375,7.32421875,-321.2890625,-37.59765625,207.51953125
1574109824.5463898,124.51171875,-88.8671875,-461.42578125,-28.80859375,-7.8125
1574109824.5463898,5.859375,-493.65234375,-744.140625,-27.34375,18.5546875
1574109824.5463898,-32.2265625,-599.12109375,-786.1328125,-17.08984375,29.78515625
1574109824.5932648,-8.30078125,-572.75390625,-818.359375,-23.92578125,-49.8046875
1574109824.5932648,25.87890625,-537.59765625,-814.94140625,-38.0859375,-189.94140625
1574109824.5932648,-41.50390625,-718.26171875,-876.46484375,-29.78515625,-25.390625
1574109824.5932648,39.0625,-209.9609375,-451.66015625,-27.83203125,-19.04296875
1574109824.5932648,79.1015625,-167.48046875,-464.84375,-16.11328125,-87.890625
1574109824.5932648,-83.984375,-832.03125,-928.22265625,-6.8359375,-6.34765625
1574109824.5932648,-389.6484375,-1000.0,-1000.0,-32.71484375,268.5546875
1574109824.5932648,-171.38671875,-351.5625,-552.24609375,-58.10546875,369.140625
1574109824.5932648,153.3203125,157.71484375,-181.640625,-42.48046875,-23.92578125
1574109824.5932648,-36.62109375,-456.0546875,-663.57421875,-21.484375,-34.1796875
1574109824.5932648,-138.18359375,-869.62890625,-997.55859375,-27.34375,34.66796875
1574109824.5932648,12.6953125,-525.390625,-782.71484375,-45.8984375,-112.3046875
1574109824.6401398,102.05078125,-75.68359375,-397.4609375,-27.34375,-133.7890625
1574109824.6401398,-36.1328125,-467.28515625,-660.64453125,0.0,-62.5
1574109824.6401398,-162.59765625,-1000.0,-1000.0,-18.5546875,-44.43359375
1574109824.6401398,-42.48046875,-743.65234375,-843.75,-41.50390625,-64.94140625
1574109824.6401398,79.58984375,-292.48046875,-562.01171875,-40.52734375,-105.46875
1574109824.6401398,-194.82421875,-737.79296875,-855.95703125,8.30078125,41.50390625
1574109824.6401398,-343.26171875,-1000.0,-1000.0,-2.44140625,335.44921875
1574109824.6401398,-33.203125,-597.16796875,-781.73828125,-58.59375,165.0390625
1574109824.6401398,128.90625,-94.23828125,-440.91796875,-44.921875,-115.234375
1574109824.6401398,-198.2421875,-693.84765625,-815.91796875,-5.37109375,-35.15625
1574109824.6401398,-217.7734375,-683.59375,-853.515625,-25.87890625,41.9921875
1574109824.6401398,108.3984375,-194.82421875,-586.9140625,-55.6640625,-98.14453125
1574109824.6870148,34.1796875,-445.3125,-744.62890625,-29.78515625,-176.26953125
1574109824.6870148,-44.43359375,-594.7265625,-766.11328125,-6.34765625,-99.609375
1574109824.6870148,31.25,-314.94140625,-573.2421875,-9.765625,-40.0390625
1574109824.6870148,108.3984375,-251.953125,-620.60546875,-33.203125,-79.1015625
1574109824.6870148,-19.04296875,-605.95703125,-818.84765625,-29.296875,-164.55078125
1574109824.6870148,-245.60546875,-1000.0,-1000.0,0.0,75.1953125
1574109824.6870148,-191.40625,-1000.0,-1000.0,5.37109375,201.66015625
1574109824.6870148,-95.703125,-965.33203125,-978.515625,-23.4375,-13.18359375
1574109824.6870148,-152.83203125,-1000.0,-1000.0,-34.1796875,-116.2109375
1574109824.6870148,-344.7265625,-901.3671875,-940.91796875,-12.6953125,101.5625
1574109824.6870148,-105.95703125,-274.90234375,-510.7421875,-29.296875,137.20703125
1574109824.6870148,169.921875,74.21875,-334.47265625,-35.64453125,-112.79296875
1574109824.7338898,14.16015625,-503.41796875,-754.8828125,-29.78515625,-150.87890625
1574109824.7338898,-22.4609375,-545.41015625,-701.66015625,-25.87890625,-58.59375
1574109824.7338898,91.30859375,-68.359375,-352.5390625,-6.34765625,-36.62109375
1574109824.7338898,82.03125,-248.53515625,-585.44921875,-8.7890625,-128.41796875
1574109824.7338898,-44.43359375,-726.07421875,-913.57421875,-19.04296875,-105.95703125
1574109824.7338898,-149.90234375,-1000.0,-1000.0,-15.625,-42.48046875
1574109824.7338898,-154.296875,-981.4453125,-988.28125,-18.5546875,57.12890625
1574109824.7338898,-5.37109375,-762.20703125,-910.15625,-24.90234375,55.17578125
1574109824.7338898,-275.87890625,-951.66015625,-1000.0,-9.765625,-3.90625
1574109824.7338898,-437.01171875,-756.34765625,-820.80078125,-14.16015625,161.1328125
1574109824.7338898,79.58984375,138.18359375,-169.921875,-37.109375,-4.8828125
1574109824.7338898,117.1875,-34.66796875,-351.07421875,-13.18359375,-111.328125
1574109824.7807648,-41.50390625,-706.0546875,-907.2265625,-20.5078125,29.296875
1574109824.7807648,44.43359375,-375.9765625,-640.625,-40.52734375,-46.38671875
1574109824.7807648,145.01953125,114.2578125,-227.5390625,-12.6953125,-121.09375
1574109824.7807648,49.31640625,-251.46484375,-510.7421875,8.7890625,-130.859375
1574109824.7807648,-77.63671875,-831.54296875,-965.33203125,-18.06640625,-48.33984375
1574109824.7807648,-133.7890625,-963.37890625,-987.79296875,-30.76171875,78.61328125
1574109824.7807648,-123.53515625,-979.00390625,-986.328125,-30.76171875,-10.7421875
1574109824.7807648,-116.2109375,-982.421875,-995.60546875,-19.04296875,-130.37109375
1574109824.7807648,-405.2734375,-1000.0,-1000.0,-2.44140625,131.34765625
1574109824.7807648,-193.84765625,-465.33203125,-705.078125,-47.36328125,290.0390625
1574109824.7807648,110.83984375,-207.03125,-544.43359375,-40.52734375,-45.8984375
1574109824.7807648,-78.61328125,-763.18359375,-894.53125,-0.48828125,-122.55859375
1574109824.8276398,-16.6015625,-519.53125,-699.21875,-9.27734375,-41.015625
1574109824.8276398,145.99609375,-41.50390625,-421.38671875,-34.66796875,-54.19921875
1574109824.8276398,119.62890625,-145.5078125,-505.37109375,-23.92578125,-81.54296875
1574109824.8276398,-41.50390625,-595.703125,-770.01953125,-2.9296875,-63.96484375
1574109824.8276398,-50.29296875,-635.25390625,-820.3125,-7.8125,68.359375
1574109824.8276398,-56.640625,-799.31640625,-915.0390625,-17.578125,70.3125
1574109824.8276398,-71.2890625,-1000.0,-1000.0,-21.97265625,8.30078125
1574109824.8276398,-330.56640625,-1000.0,-1000.0,4.8828125,40.0390625
1574109824.8276398,-453.61328125,-746.09375,-834.9609375,6.34765625,233.3984375
1574109824.8276398,53.22265625,-18.06640625,-386.23046875,-32.2265625,144.53125
1574109824.8276398,142.08984375,-93.26171875,-495.1171875,-34.1796875,-89.84375
1574109824.8276398,2.44140625,-494.62890625,-707.51953125,-20.01953125,77.1484375
1574109824.8745148,68.84765625,-133.7890625,-401.85546875,-5.859375,99.12109375
1574109824.8745148,52.24609375,-384.27734375,-627.44140625,-12.6953125,-39.0625
1574109824.8745148,-95.703125,-1000.0,-1000.0,-21.97265625,-132.8125
1574109824.8745148,-72.75390625,-713.8671875,-793.45703125,-28.80859375,-125.9765625
1574109824.8745148,59.5703125,-108.88671875,-396.97265625,-22.4609375,-79.58984375
1574109824.8745148,-35.64453125,-645.5078125,-793.45703125,-0.48828125,61.03515625
1574109824.8745148,-151.3671875,-1000.0,-1000.0,-1.46484375,85.44921875
1574109824.8745148,-405.76171875,-1000.0,-1000.0,-5.37109375,128.41796875
1574109824.8745148,-223.14453125,-390.625,-559.08203125,-25.390625,232.421875
1574109824.8745148,192.87109375,336.9140625,-38.0859375,-21.484375,-52.734375
1574109824.8745148,25.390625,-355.46875,-599.609375,-2.9296875,-69.82421875
1574109824.8745148,-42.48046875,-672.36328125,-830.56640625,-23.92578125,0.9765625
1574109824.9213898,121.09375,1.46484375,-302.734375,-36.1328125,-84.47265625
1574109824.9213898,138.18359375,123.046875,-201.66015625,-20.5078125,-107.91015625
1574109824.9213898,-24.90234375,-547.36328125,-729.00390625,-20.99609375,-45.8984375
1574109824.9213898,-41.9921875,-730.95703125,-917.96875,-40.0390625,-36.62109375
1574109824.9213898,-1.46484375,-558.59375,-807.12890625,-35.64453125,-80.56640625
1574109824.9213898,-61.03515625,-938.96484375,-987.3046875,-17.578125,-10.25390625
1574109824.9213898,-339.35546875,-1000.0,-1000.0,7.32421875,165.52734375
1574109824.9213898,-454.58984375,-809.5703125,-914.55078125,-16.11328125,340.8203125
1574109824.9213898,18.06640625,-168.9453125,-484.86328125,-51.26953125,119.62890625
1574109824.9213898,106.4453125,-66.89453125,-362.79296875,-27.34375,-115.72265625
1574109824.9213898,-21.484375,-541.015625,-746.58203125,-10.7421875,66.89453125
1574109824.9213898,37.59765625,-469.7265625,-771.97265625,-32.71484375,63.96484375
1574109824.9682648,134.27734375,-88.8671875,-485.83984375,-48.828125,-145.5078125
1574109824.9682648,43.9453125,-320.3125,-584.9609375,-35.64453125,-118.1640625
1574109824.9682648,-62.98828125,-666.50390625,-833.984375,-19.53125,-1.953125
1574109824.9682648,36.1328125,-349.12109375,-683.59375,-28.80859375,-35.64453125
1574109824.9682648,92.28515625,-299.8046875,-690.91796875,-50.29296875,-22.4609375
1574109824.9682648,-55.17578125,-779.78515625,-920.8984375,-37.59765625,29.296875
1574109824.9682648,-397.94921875,-982.91015625,-989.74609375,-10.25390625,316.89453125
1574109824.9682648,-296.875,-901.3671875,-992.67578125,-34.66796875,389.6484375
1574109824.9682648,83.0078125,-348.14453125,-636.23046875,-63.96484375,-81.0546875
1574109824.9682648,-7.32421875,-405.76171875,-634.27734375,-28.3203125,-219.23828125
1574109824.9682648,-93.26171875,-588.37890625,-701.171875,-9.27734375,-187.98828125
1574109824.9682648,80.56640625,-124.0234375,-423.33984375,-24.90234375,-161.1328125
1574109825.0151398,118.1640625,-174.31640625,-563.4765625,-28.3203125,-177.24609375
1574109825.0151398,-27.34375,-619.140625,-829.58984375,-15.625,-123.53515625
1574109825.0151398,-65.4296875,-616.69921875,-749.0234375,-13.671875,10.7421875
1574109825.0151398,83.984375,-103.515625,-427.734375,-23.92578125,-53.22265625
1574109825.0151398,60.05859375,-472.16796875,-770.01953125,-21.484375,-67.3828125
1574109825.0151398,-169.43359375,-957.51953125,-1000.0,-22.94921875,201.171875
1574109825.0151398,-251.46484375,-1000.0,-1000.0,-25.87890625,355.95703125
1574109825.0151398,-49.31640625,-581.54296875,-736.328125,-35.15625,203.61328125
1574109825.0151398,116.2109375,-338.37890625,-650.390625,-44.921875,-35.15625
1574109825.0151398,-269.04296875,-900.390625,-988.76953125,-13.18359375,-51.7578125
1574109825.0151398,-492.1875,-895.01953125,-929.19921875,2.9296875,13.671875
1574109825.0151398,-13.18359375,-228.02734375,-485.3515625,-16.6015625,-62.5
1574109825.0620148,89.35546875,-178.22265625,-500.48828125,-18.06640625,-90.8203125
1574109825.0620148,-33.69140625,-695.3125,-917.96875,-25.390625,-69.82421875
1574109825.0620148,36.1328125,-366.2109375,-620.60546875,-33.69140625,-125.48828125
1574109825.0620148,125.48828125,67.87109375,-280.76171875,-31.25,-102.05078125
1574109825.0620148,27.34375,-371.58203125,-633.30078125,-25.390625,-121.58203125
1574109825.0620148,-173.828125,-970.21484375,-1000.0,-20.01953125,-31.73828125
1574109825.0620148,-174.31640625,-1000.0,-1000.0,-26.3671875,111.81640625
1574109825.0620148,36.1328125,-446.2890625,-638.671875,-26.3671875,-41.015625
1574109825.0620148,4.8828125,-336.9140625,-547.36328125,-9.765625,-136.71875
1574109825.0620148,-313.4765625,-944.3359375,-1000.0,-0.9765625,228.02734375
1574109825.0620148,-79.1015625,-339.35546875,-623.046875,-19.04296875,381.8359375
1574109825.0620148,169.43359375,176.7578125,-208.0078125,-27.34375,36.62109375
1574109825.1088898,-58.59375,-518.06640625,-665.0390625,-11.23046875,-37.109375
1574109825.1088898,-114.74609375,-842.28515625,-946.77734375,-19.04296875,-31.73828125
1574109825.1088898,94.23828125,-209.47265625,-568.84765625,-36.1328125,-73.2421875
1574109825.1088898,141.11328125,51.26953125,-308.59375,-29.78515625,-149.4140625
1574109825.1088898,-52.24609375,-487.79296875,-638.671875,-6.34765625,-145.01953125
1574109825.1088898,-198.73046875,-1000.0,-1000.0,-12.6953125,83.0078125
1574109825.1088898,-159.1796875,-1000.0,-1000.0,-38.57421875,133.7890625
1574109825.1088898,22.4609375,-588.8671875,-749.0234375,-51.26953125,-46.875
1574109825.1088898,-219.7265625,-673.828125,-789.55078125,-5.859375,3.90625
1574109825.1088898,-444.82421875,-906.25,-984.375,11.23046875,240.72265625
1574109825.1088898,31.73828125,-231.4453125,-600.5859375,-53.22265625,79.1015625
1574109825.1088898,119.140625,-137.20703125,-502.9296875,-45.41015625,-145.99609375
1574109825.1557648,-18.5546875,-513.671875,-695.80078125,-18.06640625,-40.52734375
1574109825.1557648,59.08203125,-195.80078125,-442.3828125,-22.4609375,77.63671875
1574109825.1557648,126.953125,-112.79296875,-514.6484375,-31.73828125,-8.30078125
1574109825.1557648,-28.3203125,-757.8125,-947.75390625,-25.87890625,-19.04296875
1574109825.1557648,-109.86328125,-786.1328125,-849.12109375,-6.34765625,22.94921875
1574109825.1557648,-65.4296875,-660.15625,-823.73046875,6.34765625,-52.734375
1574109825.1557648,-73.2421875,-966.796875,-1000.0,7.32421875,5.37109375
1574109825.1557648,-121.58203125,-996.09375,-987.3046875,-12.6953125,-36.62109375
1574109825.1557648,-417.48046875,-1000.0,-1000.0,-13.18359375,91.796875
1574109825.1557648,-205.078125,-360.3515625,-551.7578125,-16.6015625,284.1796875
1574109825.1557648,184.5703125,270.01953125,-141.6015625,-21.484375,-14.16015625
1574109825.1557648,37.59765625,-380.37109375,-650.390625,-14.16015625,-79.58984375
1574109825.2026398,-43.45703125,-711.42578125,-854.00390625,-31.25,-59.5703125
1574109825.2026398,79.58984375,-126.46484375,-410.64453125,-28.80859375,-73.73046875
1574109825.2026398,110.83984375,-28.3203125,-357.421875,-15.625,-73.2421875
1574109825.2026398,-25.87890625,-607.421875,-814.94140625,-15.625,-26.85546875
1574109825.2026398,-36.1328125,-648.92578125,-853.515625,-21.97265625,-40.0390625
1574109825.2026398,-75.68359375,-698.73046875,-850.09765625,-10.7421875,15.13671875
1574109825.2026398,-101.07421875,-1000.0,-1000.0,0.48828125,178.22265625
1574109825.2026398,-325.68359375,-1000.0,-1000.0,5.37109375,125.9765625
1574109825.2026398,-453.125,-803.7109375,-899.90234375,-21.97265625,221.6796875
1574109825.2026398,51.7578125,56.640625,-266.11328125,-40.52734375,83.984375
1574109825.2026398,110.3515625,0.0,-304.6875,9.27734375,-123.046875
1574109825.2026398,-27.34375,-605.46875,-828.125,-6.8359375,53.7109375
1574109825.2495148,74.70703125,-299.31640625,-620.60546875,-57.6171875,-47.36328125
1574109825.2495148,155.2734375,114.74609375,-256.34765625,-45.8984375,-285.64453125
1574109825.2495148,58.59375,-167.48046875,-414.0625,-21.484375,-210.44921875
1574109825.2495148,-61.5234375,-684.08203125,-862.3046875,-14.16015625,-54.19921875
1574109825.2495148,19.53125,-500.9765625,-813.96484375,-38.57421875,-15.13671875
1574109825.2495148,-28.3203125,-764.16015625,-921.38671875,-47.8515625,-0.9765625
1574109825.2495148,-150.87890625,-1000.0,-1000.0,-21.484375,-42.96875
1574109825.2495148,-433.10546875,-994.140625,-1000.0,6.34765625,187.5
1574109825.2495148,-264.6484375,-611.81640625,-822.265625,-29.78515625,218.75
1574109825.2495148,41.50390625,-483.88671875,-810.05859375,-52.734375,-119.140625
1574109825.2495148,-93.75,-848.14453125,-1000.0,-28.80859375,-185.546875
1574109825.2495148,-23.92578125,-479.00390625,-640.13671875,-18.06640625,-79.1015625
1574109825.2963898,110.3515625,-84.9609375,-463.8671875,-33.203125,-4.39453125
1574109825.2963898,102.5390625,-218.75,-643.06640625,-45.41015625,-89.35546875
1574109825.2963898,-30.2734375,-614.2578125,-825.1953125,-26.3671875,-79.1015625
1574109825.2963898,-20.99609375,-428.22265625,-618.65234375,-13.18359375,-27.34375
1574109825.2963898,82.51953125,-71.2890625,-457.51953125,-15.625,-5.37109375
1574109825.2963898,18.5546875,-744.62890625,-930.17578125,-20.5078125,-77.63671875
1574109825.2963898,-315.91796875,-1000.0,-1000.0,-3.41796875,-83.49609375
1574109825.2963898,-450.1953125,-746.58203125,-841.796875,2.9296875,273.4375
1574109825.2963898,13.671875,-64.453125,-424.8046875,-30.2734375,238.76953125
1574109825.2963898,107.91015625,-192.87109375,-617.67578125,-33.203125,57.12890625
1574109825.2963898,-2.44140625,-563.4765625,-839.84375,-33.69140625,44.921875
1574109825.2963898,-17.578125,-523.92578125,-713.8671875,-20.01953125,-24.4140625
1574109825.3432648,11.71875,-466.30859375,-739.74609375,-12.20703125,-194.82421875
1574109825.3432648,50.29296875,-437.01171875,-784.1796875,-29.78515625,-282.71484375
1574109825.3432648,-13.671875,-629.39453125,-860.83984375,-38.0859375,-145.5078125
1574109825.3432648,45.41015625,-174.31640625,-433.10546875,-37.109375,-41.015625
1574109825.3432648,96.19140625,-58.10546875,-387.6953125,-19.53125,-10.7421875
1574109825.3432648,-41.9921875,-724.12109375,-862.79296875,-9.27734375,172.36328125
1574109825.3432648,-384.765625,-1000.0,-1000.0,-12.20703125,434.5703125
1574109825.3432648,-200.68359375,-416.50390625,-625.9765625,-28.3203125,293.45703125
1574109825.3432648,140.625,91.796875,-266.11328125,-17.578125,-156.25
1574109825.3432648,-32.71484375,-507.8125,-725.09765625,-6.34765625,-237.3046875
1574109825.3432648,-93.26171875,-732.421875,-900.87890625,-10.7421875,-127.44140625
1574109825.3432648,92.7734375,-106.4453125,-440.4296875,-15.13671875,-55.17578125
1574109825.3901398,139.16015625,153.80859375,-188.96484375,-12.20703125,-36.62109375
1574109825.3901398,-15.13671875,-396.484375,-607.91015625,4.39453125,4.8828125
1574109825.3901398,-151.3671875,-1000.0,-1000.0,-10.7421875,22.4609375
1574109825.3901398,-28.80859375,-659.1796875,-778.3203125,-35.15625,-40.52734375
1574109825.3901398,91.796875,-179.19921875,-468.26171875,-16.11328125,-59.08203125
1574109825.3901398,-209.47265625,-746.09375,-855.95703125,11.23046875,82.51953125
1574109825.3901398,-334.9609375,-1000.0,-1000.0,-18.5546875,301.7578125
1574109825.3901398,-13.18359375,-562.98828125,-766.6015625,-50.29296875,52.24609375
1574109825.3901398,132.32421875,-57.6171875,-392.08984375,-29.78515625,-277.83203125
1574109825.3901398,-209.9609375,-677.734375,-785.15625,4.8828125,-65.91796875
1574109825.3901398,-243.1640625,-728.515625,-886.23046875,-8.7890625,59.08203125
1574109825.3901398,94.23828125,-233.3984375,-618.1640625,-28.80859375,-76.66015625
1574109825.4370148,61.03515625,-301.7578125,-614.2578125,-9.27734375,-71.2890625
1574109825.4370148,-20.5078125,-505.859375,-694.82421875,-5.859375,43.9453125
1574109825.4370148,22.94921875,-388.18359375,-666.015625,-18.06640625,80.56640625
1574109825.4370148,101.07421875,-249.51171875,-668.9453125,-27.34375,0.9765625
1574109825.4370148,0.0,-567.3828125,-826.66015625,-13.18359375,-81.54296875
1574109825.4370148,-205.078125,-994.140625,-1000.0,-0.9765625,61.5234375
1574109825.4370148,-179.6875,-1000.0,-1000.0,-18.06640625,247.55859375
1574109825.4370148,-80.078125,-961.9140625,-978.02734375,-26.3671875,43.45703125
1574109825.4370148,-125.9765625,-1000.0,-1000.0,-12.20703125,-138.671875
1574109825.4370148,-335.44921875,-876.953125,-922.8515625,-2.44140625,37.59765625
1574109825.4370148,-147.4609375,-434.08203125,-656.25,-16.11328125,70.80078125
1574109825.4370148,81.54296875,-364.2578125,-724.609375,-13.671875,-160.15625
1574109825.4838898,-31.25,-688.4765625,-917.96875,-1.46484375,-54.6875
1574109825.4838898,-22.94921875,-482.421875,-637.20703125,14.16015625,31.25
1574109825.4838898,108.3984375,33.203125,-279.78515625,-0.48828125,-75.68359375
1574109825.4838898,119.140625,-60.546875,-450.1953125,-24.4140625,-145.01953125
1574109825.4838898,-20.5078125,-609.375,-826.66015625,-24.90234375,-29.296875
1574109825.4838898,-131.8359375,-1000.0,-1000.0,-13.18359375,177.24609375
1574109825.4838898,-117.67578125,-954.58984375,-982.91015625,2.44140625,77.63671875
1574109825.4838898,16.6015625,-720.21484375,-895.01953125,-10.7421875,65.91796875
1574109825.4838898,-237.79296875,-899.4140625,-1000.0,-6.34765625,131.34765625
1574109825.4838898,-410.64453125,-750.0,-828.125,-10.7421875,126.953125
1574109825.4838898,65.91796875,134.27734375,-189.453125,-31.25,-62.01171875
1574109825.4838898,117.1875,16.6015625,-293.9453125,-13.18359375,-177.24609375
1574109825.5307648,-33.69140625,-637.6953125,-860.83984375,-27.83203125,-93.26171875
1574109825.5307648,45.41015625,-378.90625,-666.50390625,-30.2734375,-50.29296875
1574109825.5307648,147.94921875,165.0390625,-174.31640625,-18.5546875,-94.7265625
1574109825.5307648,71.2890625,-112.3046875,-395.01953125,-26.3671875,-32.2265625
1574109825.5307648,-62.5,-796.875,-950.1953125,-33.203125,11.71875
1574109825.5307648,-125.9765625,-994.140625,-1000.0,-31.25,66.40625
1574109825.5307648,-103.515625,-973.14453125,-979.00390625,-28.3203125,157.71484375
1574109825.5307648,-97.65625,-941.40625,-995.60546875,-13.18359375,-35.15625
1574109825.5307648,-392.578125,-1000.0,-1000.0,-9.765625,184.5703125
1574109825.5307648,-203.125,-485.83984375,-714.35546875,-55.17578125,384.765625
1574109825.5307648,96.6796875,-192.3828125,-544.921875,-34.66796875,-118.1640625
1574109825.5307648,-93.26171875,-786.62109375,-926.26953125,-4.39453125,-152.83203125
1574109825.5776398,-29.296875,-551.7578125,-722.16796875,-19.53125,-32.71484375
1574109825.5776398,146.97265625,-5.37109375,-400.390625,-22.4609375,-129.39453125
1574109825.5776398,133.7890625,-42.96875,-439.453125,-20.99609375,-103.515625
1574109825.5776398,-39.55078125,-533.69140625,-720.21484375,-14.16015625,11.23046875
1574109825.5776398,-68.359375,-665.0390625,-854.4921875,-20.01953125,85.9375
1574109825.5776398,-77.63671875,-796.38671875,-922.36328125,-20.01953125,74.21875
1574109825.5776398,-64.453125,-1000.0,-1000.0,-31.73828125,33.203125
1574109825.5776398,-300.29296875,-1000.0,-1000.0,-7.8125,42.48046875
1574109825.5776398,-464.84375,-776.3671875,-872.55859375,-1.953125,294.921875
1574109825.5776398,20.99609375,-125.0,-484.375,-45.41015625,195.3125
1574109825.5776398,130.859375,-147.94921875,-555.17578125,-31.25,-148.4375
1574109825.5776398,22.4609375,-422.36328125,-658.203125,-16.6015625,-58.59375
1574109825.6245148,89.35546875,-36.1328125,-283.69140625,-8.30078125,32.2265625
1574109825.6245148,70.80078125,-244.62890625,-546.875,-4.39453125,-35.64453125
1574109825.6245148,-66.40625,-1000.0,-1000.0,-12.6953125,-67.3828125
1574109825.6245148,-54.19921875,-734.375,-812.5,-11.71875,-112.3046875
1574109825.6245148,74.21875,-26.85546875,-325.1953125,-11.23046875,-134.27734375
1574109825.6245148,-11.71875,-535.64453125,-692.87109375,-7.32421875,72.265625
1574109825.6245148,-125.9765625,-1000.0,-1000.0,-11.71875,96.6796875
1574109825.6245148,-395.99609375,-1000.0,-1000.0,-15.13671875,118.65234375
1574109825.6245148,-235.83984375,-367.67578125,-543.45703125,-25.390625,145.5078125
1574109825.6245148,185.05859375,287.109375,-75.68359375,-22.4609375,-182.6171875
1574109825.6245148,4.39453125,-416.50390625,-635.25390625,-17.578125,-188.96484375
1574109825.6245148,-67.3828125,-702.63671875,-850.5859375,-15.13671875,43.9453125
1574109825.6713898,104.98046875,-54.6875,-365.234375,1.46484375,33.69140625
1574109825.6713898,120.60546875,64.453125,-264.6484375,18.5546875,15.625
1574109825.6713898,-24.90234375,-550.78125,-725.5859375,0.9765625,106.4453125
1574109825.6713898,-59.08203125,-805.17578125,-999.51171875,-23.92578125,21.484375
1574109825.6713898,-43.45703125,-758.30078125,-954.58984375,-9.27734375,-62.01171875
1574109825.6713898,-67.3828125,-969.7265625,-989.2578125,-6.34765625,41.015625
1574109825.6713898,-316.40625,-1000.0,-1000.0,3.90625,155.2734375
1574109825.6713898,-456.54296875,-818.359375,-921.875,-18.06640625,301.7578125
1574109825.6713898,17.578125,-104.4921875,-441.40625,-52.24609375,104.98046875
1574109825.6713898,133.30078125,91.796875,-228.515625,-21.484375,-207.51953125
1574109825.6713898,9.27734375,-392.578125,-619.62890625,-15.625,-98.6328125
1574109825.6713898,54.19921875,-423.828125,-755.859375,-42.96875,-84.47265625
1574109825.7182648,124.0234375,-104.00390625,-518.5546875,-39.55078125,-233.3984375
1574109825.7182648,43.9453125,-318.359375,-591.30859375,-16.11328125,-208.49609375
1574109825.7182648,-61.03515625,-680.6640625,-840.33203125,-4.8828125,-79.58984375
1574109825.7182648,44.921875,-338.37890625,-655.76171875,-31.73828125,-127.9296875
1574109825.7182648,93.75,-319.82421875,-701.66015625,-41.015625,-107.421875
1574109825.7182648,-63.96484375,-831.54296875,-953.61328125,-18.5546875,-37.109375
1574109825.7182648,-414.55078125,-1000.0,-1000.0,0.0,232.421875
1574109825.7182648,-319.82421875,-954.1015625,-1000.0,-31.73828125,355.95703125
1574109825.7182648,92.28515625,-397.94921875,-677.734375,-57.12890625,-38.57421875
1574109825.7182648,-4.39453125,-464.84375,-707.03125,-19.04296875,-123.53515625
1574109825.7182648,-97.16796875,-587.40234375,-710.44921875,-6.8359375,-21.97265625
1574109825.7182648,82.51953125,-115.234375,-432.6171875,-20.99609375,-69.82421875
1574109825.7651398,130.859375,-116.69921875,-534.66796875,-17.08984375,-228.02734375
1574109825.7651398,-12.20703125,-558.10546875,-790.52734375,-9.765625,-170.8984375
1574109825.7651398,-62.98828125,-606.4453125,-729.00390625,-11.71875,-49.31640625
1574109825.7651398,88.37890625,-69.3359375,-378.90625,-15.625,-35.64453125
1574109825.7651398,89.84375,-321.77734375,-674.31640625,-3.41796875,-85.44921875
1574109825.7651398,-130.37109375,-831.0546875,-962.890625,-9.765625,-1.953125
1574109825.7651398,-238.76953125,-1000.0,-1000.0,-24.4140625,206.0546875
1574109825.7651398,-54.6875,-665.52734375,-816.89453125,-18.5546875,157.2265625
1574109825.7651398,130.859375,-243.1640625,-611.81640625,-24.90234375,-105.95703125
1574109825.7651398,-256.34765625,-865.234375,-987.3046875,2.9296875,-168.45703125
1574109825.7651398,-422.36328125,-824.70703125,-866.2109375,-2.44140625,-13.671875
1574109825.7651398,57.6171875,-24.4140625,-337.890625,-20.5078125,-54.19921875
1574109825.8120148,78.125,-245.60546875,-581.54296875,-0.9765625,-69.82421875
1574109825.8120148,-45.8984375,-751.953125,-956.54296875,-19.53125,-6.34765625
1574109825.8120148,16.6015625,-426.26953125,-664.55078125,-21.484375,-102.5390625
1574109825.8120148,112.79296875,12.20703125,-313.96484375,-8.30078125,-70.80078125
1574109825.8120148,31.25,-348.14453125,-606.93359375,0.9765625,27.83203125
1574109825.8120148,-165.0390625,-975.5859375,-1000.0,7.8125,57.6171875
1574109825.8120148,-179.19921875,-1000.0,-1000.0,2.44140625,104.00390625
1574109825.8120148,3.90625,-511.23046875,-695.80078125,-15.625,83.0078125
1574109825.8120148,3.41796875,-409.66796875,-620.60546875,-9.27734375,32.71484375
1574109825.8120148,-319.3359375,-960.9375,-1000.0,-4.8828125,218.26171875
1574109825.8120148,-104.98046875,-397.94921875,-669.43359375,-33.203125,180.6640625
1574109825.8120148,145.5078125,77.63671875,-304.6875,-8.30078125,-182.6171875
1574109825.8588898,-57.6171875,-520.01953125,-676.7578125,18.5546875,-186.5234375
1574109825.8588898,-72.75390625,-748.046875,-929.6875,-26.85546875,-53.22265625
1574109825.8588898,101.07421875,-235.83984375,-621.58203125,-46.38671875,-101.07421875
1574109825.8588898,127.44140625,-31.25,-378.90625,-16.6015625,-150.390625
1574109825.8588898,-59.08203125,-526.3671875,-683.59375,6.34765625,-74.21875
1574109825.8588898,-184.5703125,-1000.0,-1000.0,-2.44140625,132.32421875
1574109825.8588898,-142.578125,-1000.0,-1000.0,-31.73828125,99.609375
1574109825.8588898,31.73828125,-562.5,-714.84375,-43.9453125,-169.43359375
1574109825.8588898,-209.47265625,-670.41015625,-784.66796875,-13.18359375,-75.68359375
1574109825.8588898,-433.59375,-873.53515625,-956.54296875,-21.97265625,199.70703125
1574109825.8588898,25.87890625,-257.8125,-614.74609375,-58.59375,38.0859375
1574109825.8588898,22.94921875,-602.05078125,-901.85546875,-31.73828125,-135.7421875
1574109825.9057648,-64.94140625,-675.29296875,-838.37890625,-37.59765625,136.71875
1574109825.9057648,85.9375,-27.34375,-288.57421875,-37.59765625,137.6953125
1574109825.9057648,117.67578125,-136.23046875,-534.66796875,-14.6484375,-61.5234375
1574109825.9057648,-29.78515625,-778.80859375,-964.84375,-24.4140625,-71.77734375
1574109825.9057648,-106.4453125,-845.703125,-901.3671875,-16.6015625,-7.8125
1574109825.9057648,-93.26171875,-804.6875,-905.76171875,3.41796875,90.8203125
1574109825.9057648,-93.26171875,-1000.0,-1000.0,-13.18359375,76.171875
1574109825.9057648,-107.421875,-984.375,-984.86328125,-21.484375,-34.1796875
1574109825.9057648,-405.76171875,-1000.0,-1000.0,0.0,110.3515625
1574109825.9057648,-209.9609375,-375.48828125,-545.41015625,-8.7890625,311.03515625
1574109825.9057648,198.2421875,293.45703125,-125.0,-16.11328125,54.6875
1574109825.9057648,42.96875,-408.69140625,-696.77734375,-20.5078125,-47.36328125
1574109825.9526398,-15.13671875,-597.65625,-747.0703125,-25.87890625,-50.78125
1574109825.9526398,130.859375,126.953125,-177.24609375,-12.6953125,-44.43359375
1574109825.9526398,143.06640625,108.3984375,-268.06640625,2.44140625,-140.13671875
1574109825.9526398,-9.765625,-555.17578125,-786.1328125,-14.16015625,-109.375
1574109825.9526398,-33.69140625,-640.625,-817.3828125,-32.2265625,-85.44921875
1574109825.9526398,-38.0859375,-601.5625,-776.85546875,-14.16015625,3.90625
1574109825.9526398,-53.22265625,-929.19921875,-969.23828125,-8.30078125,117.67578125
1574109825.9526398,-304.6875,-1000.0,-1000.0,10.25390625,-37.109375
1574109825.9526398,-439.453125,-797.8515625,-896.97265625,-2.44140625,95.703125
1574109825.9526398,56.640625,69.3359375,-261.23046875,-40.0390625,73.2421875
1574109825.9526398,146.97265625,163.0859375,-153.80859375,-28.3203125,-125.9765625
1574109825.9526398,4.39453125,-519.53125,-749.0234375,-31.25,-23.4375
1574109825.9995148,64.453125,-389.16015625,-710.44921875,-37.109375,79.58984375
1574109825.9995148,154.78515625,98.14453125,-302.734375,-32.2265625,-33.69140625
1574109825.9995148,55.17578125,-215.33203125,-483.3984375,-14.6484375,-105.95703125
1574109825.9995148,-67.87109375,-706.0546875,-879.39453125,-15.13671875,-17.578125
1574109825.9995148,23.92578125,-485.83984375,-805.17578125,-39.55078125,-14.6484375
1574109825.9995148,-25.87890625,-765.13671875,-931.640625,-30.2734375,32.71484375
1574109825.9995148,-131.8359375,-1000.0,-1000.0,-10.7421875,63.4765625
1574109825.9995148,-418.9453125,-979.4921875,-979.98046875,10.25390625,266.11328125
1574109825.9995148,-312.98828125,-790.52734375,-957.03125,-18.06640625,249.51171875
1574109825.9995148,49.31640625,-520.01953125,-815.4296875,-46.875,-70.3125
1574109825.9995148,-28.3203125,-613.28125,-784.66796875,-13.18359375,-29.78515625
1574109825.9995148,-22.4609375,-518.06640625,-685.05859375,-4.8828125,13.671875
1574109826.0463898,117.1875,-103.02734375,-471.19140625,-28.3203125,-54.19921875
1574109826.0463898,132.32421875,-122.55859375,-545.8984375,-32.71484375,-94.23828125
1574109826.0463898,-11.71875,-551.26953125,-761.23046875,-28.80859375,-117.67578125
1574109826.0463898,-29.296875,-501.953125,-669.43359375,-18.06640625,-83.984375
1574109826.0463898,79.58984375,-152.34375,-514.6484375,-9.27734375,-8.7890625
1574109826.0463898,-2.44140625,-773.4375,-935.05859375,-16.6015625,-21.484375
1574109826.0463898,-327.63671875,-1000.0,-1000.0,0.0,-36.1328125
1574109826.0463898,-440.91796875,-758.7890625,-838.8671875,6.34765625,211.9140625
1574109826.0463898,-3.90625,-142.578125,-470.21484375,-25.390625,145.99609375
1574109826.0463898,106.4453125,-217.7734375,-628.90625,-28.80859375,-82.51953125
1574109826.0463898,-10.7421875,-576.66015625,-846.6796875,-24.90234375,-120.1171875
1574109826.0463898,-43.45703125,-630.37109375,-822.265625,-10.7421875,-71.2890625
1574109826.0932648,9.765625,-462.890625,-744.62890625,-3.41796875,-75.68359375
1574109826.0932648,57.12890625,-375.0,-741.2109375,-24.4140625,-83.0078125
1574109826.0932648,-18.5546875,-641.6015625,-887.6953125,-36.62109375,-51.26953125
1574109826.0932648,20.99609375,-285.15625,-549.8046875,-30.2734375,-92.7734375
1574109826.0932648,58.59375,-189.453125,-539.0625,-14.6484375,-31.73828125
1574109826.0932648,-50.78125,-727.5390625,-883.30078125,-11.71875,58.10546875
1574109826.0932648,-387.20703125,-1000.0,-1000.0,-21.97265625,268.06640625
1574109826.0932648,-250.48828125,-643.06640625,-779.296875,-37.59765625,283.203125
1574109826.0932648,138.671875,134.27734375,-247.55859375,-18.06640625,-198.73046875
1574109826.0932648,-5.37109375,-370.1171875,-626.953125,-0.48828125,-257.32421875
1574109826.0932648,-80.56640625,-693.84765625,-873.53515625,-21.97265625,-123.53515625
1574109826.0932648,103.515625,-13.671875,-390.13671875,-34.1796875,-101.5625
1574109826.1401398,133.30078125,197.265625,-187.01171875,-15.13671875,-117.67578125
1574109826.1401398,-21.484375,-375.0,-600.09765625,2.44140625,-65.4296875
1574109826.1401398,-155.76171875,-1000.0,-1000.0,-12.6953125,-4.39453125
1574109826.1401398,-10.25390625,-592.7734375,-758.30078125,-38.0859375,-140.13671875
1574109826.1401398,112.3046875,-97.65625,-437.01171875,-25.87890625,-209.47265625
1574109826.1401398,-182.12890625,-706.54296875,-840.8203125,12.20703125,-31.73828125
1574109826.1401398,-333.984375,-1000.0,-1000.0,-13.671875,327.63671875
1574109826.1401398,-36.62109375,-570.80078125,-775.390625,-43.9453125,192.87109375
1574109826.1401398,106.93359375,-214.35546875,-558.10546875,-29.78515625,-118.65234375
1574109826.1401398,-239.74609375,-780.76171875,-901.85546875,4.39453125,21.97265625
1574109826.1401398,-264.16015625,-719.23828125,-885.25390625,-3.90625,139.6484375
1574109826.1401398,106.93359375,-182.6171875,-579.58984375,-21.97265625,-4.39453125
1574109826.1870148,51.7578125,-364.74609375,-669.43359375,-6.8359375,-117.1875
1574109826.1870148,-36.1328125,-560.546875,-739.2578125,3.41796875,-11.71875
1574109826.1870148,29.296875,-354.98046875,-632.32421875,0.48828125,124.0234375
1574109826.1870148,106.4453125,-241.2109375,-659.1796875,-30.76171875,-11.71875
1574109826.1870148,5.37109375,-574.21875,-799.8046875,-11.23046875,-140.625
1574109826.1870148,-212.890625,-1000.0,-1000.0,12.6953125,123.046875
1574109826.1870148,-193.84765625,-1000.0,-1000.0,1.953125,290.0390625
1574109826.1870148,-116.69921875,-963.8671875,-976.07421875,-17.08984375,-40.52734375
1574109826.1870148,-150.390625,-1000.0,-1000.0,-19.53125,-366.2109375
1574109826.1870148,-341.796875,-894.53125,-932.12890625,3.41796875,-182.6171875
1574109826.1870148,-108.3984375,-181.15234375,-426.26953125,4.39453125,1.46484375
1574109826.1870148,174.31640625,101.5625,-336.9140625,-8.7890625,-114.74609375
1574109826.2338898,-15.625,-578.61328125,-838.37890625,-16.11328125,-177.24609375
1574109826.2338898,-63.96484375,-638.18359375,-787.109375,-10.25390625,-98.6328125
1574109826.2338898,75.1953125,-125.48828125,-437.5,-8.30078125,-82.03125
1574109826.2338898,94.7265625,-201.171875,-578.61328125,-14.16015625,-135.7421875
1574109826.2338898,-47.8515625,-708.0078125,-906.73828125,-6.8359375,-138.18359375
1574109826.2338898,-148.4375,-1000.0,-1000.0,-8.7890625,-5.37109375
1574109826.2338898,-134.765625,-973.14453125,-990.234375,-10.25390625,53.22265625
1574109826.2338898,-14.16015625,-811.03515625,-948.2421875,-15.13671875,-130.37109375
1574109826.2338898,-246.09375,-956.54296875,-1000.0,-9.27734375,-149.90234375
1574109826.2338898,-416.015625,-770.99609375,-840.8203125,-7.8125,64.94140625
1574109826.2338898,66.89453125,144.04296875,-181.640625,-37.59765625,28.80859375
1574109826.2338898,123.046875,-3.90625,-334.9609375,-29.296875,-158.203125
1574109826.2807648,-38.57421875,-709.47265625,-937.01171875,-27.34375,-175.78125
1574109826.2807648,38.0859375,-431.640625,-722.65625,-37.109375,-217.28515625
1574109826.2807648,128.90625,25.87890625,-334.9609375,-20.5078125,-242.67578125
1574109826.2807648,37.59765625,-328.61328125,-599.12109375,3.90625,-175.29296875
1574109826.2807648,-92.7734375,-891.11328125,-1000.0,-7.32421875,-120.1171875
1574109826.2807648,-126.46484375,-978.02734375,-991.69921875,-18.06640625,14.6484375
1574109826.2807648,-104.4921875,-984.375,-990.234375,-6.8359375,100.09765625
1574109826.2807648,-74.70703125,-926.7578125,-991.69921875,0.9765625,-99.609375
1574109826.2807648,-371.58203125,-1000.0,-1000.0,-0.9765625,125.0
1574109826.2807648,-214.35546875,-522.94921875,-755.859375,-38.57421875,339.35546875
1574109826.2807648,90.8203125,-290.0390625,-642.578125,-31.73828125,-42.48046875
1574109826.2807648,-105.46875,-878.90625,-995.1171875,-0.9765625,-136.23046875
1574109826.3276398,-43.45703125,-605.95703125,-791.9921875,-19.04296875,-83.0078125
1574109826.3276398,148.92578125,-28.3203125,-453.125,-52.24609375,-159.1796875
1574109826.3276398,145.01953125,-3.90625,-396.97265625,-40.52734375,-202.1484375
1574109826.3276398,-5.37109375,-483.3984375,-668.9453125,-5.37109375,-220.21484375
1574109826.3276398,-21.97265625,-587.40234375,-776.3671875,-11.71875,-114.2578125
1574109826.3276398,-61.5234375,-760.25390625,-895.5078125,-12.6953125,42.48046875
1574109826.3276398,-48.828125,-1000.0,-1000.0,-21.97265625,46.38671875
1574109826.3276398,-275.390625,-1000.0,-1000.0,-20.5078125,108.3984375
1574109826.3276398,-436.03515625,-751.953125,-843.75,-0.9765625,360.83984375
1574109826.3276398,49.8046875,-29.78515625,-404.78515625,-24.90234375,193.84765625
1574109826.3276398,152.34375,-66.89453125,-507.8125,-23.4375,-136.71875
1574109826.3276398,26.85546875,-424.8046875,-678.22265625,-15.13671875,2.44140625
1574109826.3745148,79.58984375,-103.515625,-384.765625,-18.06640625,3.41796875
1574109826.3745148,50.29296875,-347.16796875,-622.55859375,-17.578125,-59.08203125
1574109826.3745148,-71.77734375,-1000.0,-1000.0,-17.08984375,-41.015625
1574109826.3745148,-48.828125,-768.5546875,-854.98046875,-13.18359375,39.0625
1574109826.3745148,71.2890625,-54.6875,-356.4453125,-4.39453125,58.59375
1574109826.3745148,-10.7421875,-509.27734375,-672.36328125,5.859375,2.9296875
1574109826.3745148,-119.62890625,-1000.0,-1000.0,-20.5078125,73.73046875
1574109826.3745148,-389.16015625,-1000.0,-1000.0,-27.34375,200.68359375
1574109826.3745148,-238.28125,-358.3984375,-531.73828125,-20.5078125,256.8359375
1574109826.3745148,193.359375,342.7734375,-52.24609375,-25.390625,-28.3203125
1574109826.3745148,9.765625,-415.52734375,-656.73828125,-31.73828125,-112.79296875
1574109826.3745148,-71.2890625,-708.984375,-862.3046875,-36.62109375,20.5078125
1574109826.4213898,104.98046875,-38.0859375,-384.765625,-24.90234375,-37.59765625
1574109826.4213898,127.44140625,53.22265625,-296.875,-15.13671875,-93.75
1574109826.4213898,-30.76171875,-562.5,-752.9296875,-4.39453125,19.53125
1574109826.4213898,-60.05859375,-746.09375,-940.4296875,-14.16015625,-23.92578125
1574109826.4213898,-35.64453125,-700.68359375,-888.18359375,-15.13671875,-92.28515625
1574109826.4213898,-72.265625,-982.91015625,-999.0234375,8.30078125,95.21484375
1574109826.4213898,-312.01171875,-1000.0,-1000.0,21.97265625,165.52734375
1574109826.4213898,-432.12890625,-798.828125,-896.97265625,-9.765625,284.66796875
1574109826.4213898,23.4375,-117.1875,-448.73046875,-55.17578125,177.734375
1574109826.4213898,153.3203125,156.25,-196.77734375,-30.2734375,-143.5546875
1574109826.4213898,21.484375,-342.7734375,-597.16796875,-12.6953125,-140.625
1574109826.4213898,57.6171875,-400.87890625,-708.49609375,-30.2734375,-133.7890625
1574109826.4682648,160.15625,54.6875,-350.5859375,-36.62109375,-250.0
1574109826.4682648,74.70703125,-171.38671875,-472.65625,-19.53125,-257.32421875
1574109826.4682648,-43.45703125,-643.5546875,-817.87109375,-8.7890625,-139.16015625
1574109826.4682648,52.24609375,-322.75390625,-639.6484375,-27.83203125,-89.84375
1574109826.4682648,99.12109375,-250.0,-641.6015625,-31.25,-51.26953125
1574109826.4682648,-48.33984375,-819.82421875,-944.82421875,-12.20703125,-59.5703125
1574109826.4682648,-388.671875,-992.1875,-994.140625,17.08984375,136.71875
1574109826.4682648,-316.89453125,-913.57421875,-995.60546875,-9.765625,362.79296875
1574109826.4682648,83.49609375,-418.45703125,-724.609375,-53.22265625,5.37109375
1574109826.4682648,9.765625,-431.640625,-697.75390625,-30.2734375,-84.9609375
1574109826.4682648,-110.83984375,-675.78125,-793.9453125,-4.39453125,12.20703125
1574109826.4682648,58.59375,-224.609375,-553.22265625,-20.99609375,-25.390625
1574109826.5151398,141.11328125,-121.58203125,-557.12890625,-38.0859375,-36.62109375
1574109826.5151398,-28.3203125,-620.60546875,-843.75,-17.08984375,-39.55078125
1574109826.5151398,-73.73046875,-593.26171875,-721.6796875,-10.7421875,-13.18359375
1574109826.5151398,82.03125,-72.75390625,-407.71484375,-25.87890625,23.92578125
1574109826.5151398,70.3125,-507.8125,-813.96484375,-33.203125,-21.97265625
1574109826.5151398,-211.9140625,-939.94140625,-1000.0,-15.13671875,42.96875
1574109826.5151398,-343.26171875,-1000.0,-1000.0,-3.41796875,254.8828125
1574109826.5151398,-69.82421875,-739.74609375,-871.58203125,-22.4609375,195.3125
1574109826.5151398,106.4453125,-347.16796875,-676.26953125,-23.4375,-90.8203125
1574109826.5151398,-229.98046875,-898.4375,-995.60546875,1.46484375,-151.85546875
1574109826.5151398,-294.43359375,-729.98046875,-791.9921875,-18.5546875,-107.91015625
1574109826.5151398,120.1171875,108.3984375,-210.44921875,-28.3203125,-161.1328125
1574109826.5620148,84.47265625,-204.1015625,-529.296875,-6.34765625,-93.75
1574109826.5620148,-42.48046875,-782.2265625,-976.5625,-13.671875,-103.515625
1574109826.5620148,27.83203125,-394.04296875,-616.69921875,-17.08984375,-97.65625
1574109826.5620148,127.44140625,96.6796875,-225.5859375,-4.8828125,-89.84375
1574109826.5620148,50.78125,-314.453125,-583.984375,-4.39453125,-123.046875
1574109826.5620148,-162.109375,-968.26171875,-1000.0,-20.99609375,112.3046875
1574109826.5620148,-194.3359375,-1000.0,-1000.0,-19.53125,149.4140625
1574109826.5620148,11.71875,-462.40234375,-649.90234375,-18.06640625,-56.640625
1574109826.5620148,32.71484375,-322.265625,-555.6640625,-5.37109375,-101.5625
1574109826.5620148,-300.78125,-968.75,-1000.0,-20.5078125,142.08984375
1574109826.5620148,-118.65234375,-459.47265625,-710.44921875,-56.15234375,180.17578125
1574109826.5620148,174.8046875,189.94140625,-189.94140625,-24.90234375,-107.91015625
1574109826.6088898,-28.3203125,-422.36328125,-593.75,15.13671875,-117.67578125
1574109826.6088898,-70.3125,-734.86328125,-916.50390625,-4.39453125,-13.671875
1574109826.6088898,105.95703125,-218.75,-608.3984375,-36.1328125,20.01953125
1574109826.6088898,124.0234375,-75.68359375,-444.3359375,-27.34375,-49.31640625
1574109826.6088898,-61.5234375,-533.203125,-701.66015625,-0.48828125,-8.7890625
1574109826.6088898,-185.05859375,-1000.0,-1000.0,-3.90625,102.5390625
1574109826.6088898,-144.53125,-1000.0,-1000.0,-27.83203125,83.0078125
1574109826.6088898,24.4140625,-590.33203125,-757.8125,-29.296875,-66.89453125
1574109826.6088898,-204.1015625,-637.6953125,-770.99609375,-2.44140625,14.6484375
1574109826.6088898,-463.8671875,-956.0546875,-1000.0,11.23046875,263.18359375
1574109826.6088898,-3.90625,-376.46484375,-747.0703125,-29.296875,42.48046875
1574109826.6088898,112.79296875,-211.9140625,-615.234375,-30.2734375,-27.83203125
1574109826.6557648,-23.4375,-522.4609375,-735.3515625,-14.16015625,114.2578125
1574109826.6557648,53.22265625,-204.1015625,-449.70703125,-22.4609375,55.6640625
1574109826.6557648,117.67578125,-129.39453125,-526.85546875,-22.94921875,-43.45703125
1574109826.6557648,-20.5078125,-791.015625,-968.75,-29.296875,-135.7421875
1574109826.6557648,-82.51953125,-797.8515625,-859.375,-28.3203125,-4.39453125
1574109826.6557648,-79.58984375,-735.83984375,-849.12109375,-5.859375,154.296875
1574109826.6557648,-97.65625,-1000.0,-1000.0,-4.8828125,113.76953125
1574109826.6557648,-83.49609375,-986.81640625,-984.86328125,-8.30078125,-16.11328125
1574109826.6557648,-377.9296875,-1000.0,-1000.0,3.41796875,64.453125
1574109826.6557648,-228.515625,-420.8984375,-594.7265625,-25.87890625,166.015625
1574109826.6557648,183.59375,241.2109375,-166.015625,-39.55078125,-185.546875
1574109826.6557648,33.69140625,-391.11328125,-678.22265625,-37.59765625,-216.796875
1574109826.7026398,-57.12890625,-736.328125,-875.9765625,-36.1328125,-122.55859375
1574109826.7026398,101.5625,-19.53125,-310.546875,-20.5078125,-79.58984375
1574109826.7026398,142.08984375,125.0,-248.046875,-9.27734375,-83.984375
1574109826.7026398,-5.37109375,-546.38671875,-772.94921875,-19.53125,-20.01953125
1574109826.7026398,-32.2265625,-666.50390625,-845.703125,-21.484375,119.140625
1574109826.7026398,-52.734375,-659.1796875,-825.1953125,-12.20703125,102.5390625
1574109826.7026398,-72.75390625,-965.33203125,-992.1875,-0.48828125,119.140625
1574109826.7026398,-303.22265625,-1000.0,-1000.0,14.16015625,83.984375
1574109826.7026398,-444.82421875,-830.56640625,-916.015625,-33.69140625,247.0703125
1574109826.7026398,16.6015625,-95.21484375,-393.06640625,-70.80078125,93.75
1574109826.7026398,115.72265625,3.90625,-301.26953125,-38.57421875,-160.15625
1574109826.7026398,-18.5546875,-593.26171875,-818.359375,-24.90234375,-28.80859375
1574109826.7495148,54.6875,-421.38671875,-729.4921875,-30.76171875,-103.515625
1574109826.7495148,154.78515625,75.1953125,-305.17578125,-13.671875,-178.22265625
1574109826.7495148,64.453125,-200.1953125,-463.8671875,5.859375,-87.40234375
1574109826.7495148,-53.22265625,-669.921875,-854.98046875,4.8828125,22.94921875
1574109826.7495148,25.87890625,-471.6796875,-802.734375,-14.16015625,24.90234375
1574109826.7495148,-16.11328125,-756.34765625,-938.4765625,-7.32421875,-28.80859375
1574109826.7495148,-105.95703125,-1000.0,-1000.0,3.41796875,0.0
1574109826.7495148,-398.92578125,-956.0546875,-965.8203125,2.44140625,254.8828125
1574109826.7495148,-344.7265625,-930.6640625,-1000.0,-32.71484375,230.46875
1574109826.7495148,52.734375,-487.79296875,-778.3203125,-56.640625,-238.76953125
1574109826.7495148,31.73828125,-359.86328125,-601.07421875,-27.83203125,-191.89453125
1574109826.7495148,-15.13671875,-528.3203125,-703.125,-2.44140625,-33.69140625
1574109826.7963898,92.28515625,-220.21484375,-599.12109375,-22.94921875,-95.703125
1574109826.7963898,130.859375,-125.9765625,-567.3828125,-34.66796875,-140.625
1574109826.7963898,-0.48828125,-507.8125,-727.5390625,-15.13671875,-126.953125
1574109826.7963898,-22.4609375,-478.515625,-646.484375,-8.7890625,-42.96875
1574109826.7963898,93.75,-72.75390625,-446.77734375,-17.08984375,11.71875
1574109826.7963898,7.8125,-729.00390625,-907.71484375,-11.23046875,58.59375
1574109826.7963898,-332.03125,-1000.0,-1000.0,-2.44140625,72.75390625
1574109826.7963898,-441.89453125,-740.72265625,-825.68359375,-23.4375,270.5078125
1574109826.7963898,24.4140625,-16.6015625,-342.28515625,-48.828125,225.09765625
1574109826.7963898,145.01953125,-64.94140625,-481.4453125,-40.52734375,-37.59765625
1574109826.7963898,6.8359375,-559.08203125,-837.890625,-25.87890625,-3.90625
1574109826.7963898,-46.38671875,-704.1015625,-854.00390625,-9.765625,-10.7421875
1574109826.8432648,7.32421875,-530.76171875,-770.99609375,-10.7421875,-193.359375
1574109826.8432648,57.6171875,-448.2421875,-766.6015625,-26.85546875,-115.234375
1574109826.8432648,-14.6484375,-680.17578125,-871.58203125,-30.76171875,11.23046875
1574109826.8432648,35.64453125,-260.25390625,-503.41796875,-19.04296875,4.8828125
1574109826.8432648,90.33203125,-125.48828125,-448.73046875,1.953125,79.1015625
1574109826.8432648,-24.4140625,-721.6796875,-855.95703125,8.7890625,142.08984375
1574109826.8432648,-386.23046875,-1000.0,-1000.0,-12.20703125,206.0546875
1574109826.8432648,-219.7265625,-425.78125,-618.1640625,-38.0859375,264.6484375
1574109826.8432648,145.99609375,128.41796875,-214.35546875,-16.6015625,15.625
1574109826.8432648,-25.87890625,-514.16015625,-711.42578125,0.48828125,-79.58984375
1574109826.8432648,-87.890625,-742.67578125,-891.6015625,-12.20703125,-74.21875
1574109826.8432648,94.7265625,-117.67578125,-437.98828125,-17.08984375,-108.88671875
1574109826.8901398,137.6953125,82.51953125,-242.1875,-0.9765625,-154.296875
1574109826.8901398,-28.3203125,-446.2890625,-633.30078125,13.671875,-134.765625
1574109826.8901398,-163.57421875,-1000.0,-1000.0,-7.8125,-34.66796875
1574109826.8901398,4.8828125,-591.796875,-753.90625,-19.04296875,-46.38671875
1574109826.8901398,115.72265625,-99.609375,-400.390625,8.30078125,-95.703125
1574109826.8901398,-200.68359375,-714.35546875,-822.265625,29.78515625,40.0390625
1574109826.8901398,-330.56640625,-1000.0,-1000.0,1.953125,265.625
1574109826.8901398,-3.41796875,-510.25390625,-692.87109375,-41.9921875,81.54296875
1574109826.8901398,151.3671875,-22.4609375,-361.328125,-30.76171875,-185.546875
1574109826.8901398,-205.078125,-696.77734375,-824.21875,7.8125,-112.79296875
1574109826.8901398,-245.60546875,-704.1015625,-874.51171875,-7.32421875,39.0625
1574109826.8901398,102.05078125,-183.59375,-597.16796875,-30.76171875,-37.109375
1574109826.9370148,63.96484375,-305.6640625,-635.7421875,-29.78515625,-133.7890625
1574109826.9370148,-47.36328125,-592.7734375,-793.45703125,-23.4375,-80.078125
1574109826.9370148,6.8359375,-442.87109375,-737.79296875,-9.765625,95.21484375
1574109826.9370148,85.9375,-330.078125,-752.9296875,-16.6015625,43.9453125
1574109826.9370148,-10.25390625,-690.91796875,-926.7578125,-25.390625,-35.64453125
1574109826.9370148,-195.80078125,-997.0703125,-1000.0,1.953125,209.9609375
1574109826.9370148,-183.59375,-998.046875,-1000.0,4.39453125,316.40625
1574109826.9370148,-81.0546875,-966.30859375,-981.4453125,-28.80859375,115.234375
1574109826.9370148,-116.2109375,-1000.0,-1000.0,-25.87890625,-137.20703125
1574109826.9370148,-332.51953125,-883.30078125,-936.03515625,-10.25390625,2.9296875
1574109826.9370148,-122.0703125,-201.171875,-479.4921875,-27.34375,170.41015625
1574109826.9370148,179.6875,152.83203125,-325.1953125,-34.1796875,-111.328125
1574109826.9838898,20.5078125,-466.796875,-770.01953125,-17.578125,-168.9453125
1574109826.9838898,-36.62109375,-571.77734375,-726.5625,-10.7421875,-170.41015625
1574109826.9838898,87.890625,-29.78515625,-350.09765625,-17.578125,-171.38671875
1574109826.9838898,125.0,-21.484375,-463.8671875,-26.85546875,-247.55859375
1574109826.9838898,-18.5546875,-574.21875,-833.0078125,-38.0859375,-273.4375
1574109826.9838898,-161.1328125,-1000.0,-1000.0,-13.18359375,64.453125
1574109826.9838898,-157.71484375,-979.98046875,-987.79296875,6.8359375,106.4453125
1574109826.9838898,-42.96875,-907.71484375,-978.02734375,-13.18359375,83.984375
1574109826.9838898,-275.390625,-1000.0,-1000.0,-11.71875,136.71875
1574109826.9838898,-432.6171875,-758.7890625,-846.19140625,-24.4140625,117.1875
1574109826.9838898,42.48046875,101.07421875,-255.37109375,-39.0625,-12.6953125
1574109826.9838898,117.1875,15.625,-344.7265625,-8.7890625,-146.97265625
1574109827.0307648,-20.01953125,-607.91015625,-857.91015625,-27.83203125,-60.05859375
1574109827.0307648,68.84765625,-287.59765625,-615.234375,-43.45703125,-88.37890625
1574109827.0307648,154.296875,187.98828125,-187.01171875,-18.5546875,-159.1796875
1574109827.0307648,92.28515625,-46.875,-386.71875,-4.8828125,-67.87109375
1574109827.0307648,-59.5703125,-771.97265625,-939.94140625,-12.6953125,47.8515625
1574109827.0307648,-150.390625,-1000.0,-1000.0,-19.04296875,11.71875
1574109827.0307648,-114.74609375,-932.6171875,-977.5390625,-26.3671875,-5.859375
1574109827.0307648,-74.70703125,-922.36328125,-997.0703125,-3.90625,-27.34375
1574109827.0307648,-375.9765625,-1000.0,-1000.0,21.97265625,100.5859375
1574109827.0307648,-244.140625,-565.91796875,-787.59765625,-28.3203125,219.23828125
1574109827.0307648,76.66015625,-304.19921875,-666.9921875,-42.48046875,-151.3671875
1574109827.0307648,-89.35546875,-821.2890625,-962.40234375,-7.8125,-203.125
1574109827.0776398,-21.484375,-531.73828125,-717.7734375,-5.37109375,-33.69140625
1574109827.0776398,150.87890625,-14.6484375,-437.5,-20.99609375,-51.7578125
1574109827.0776398,124.51171875,-112.79296875,-537.59765625,-23.4375,-113.76953125
1574109827.0776398,-24.4140625,-548.33984375,-751.46484375,-6.34765625,5.37109375
1574109827.0776398,-28.80859375,-567.3828125,-767.08984375,-11.71875,18.5546875
1574109827.0776398,-38.0859375,-719.23828125,-878.90625,-29.78515625,-101.5625
1574109827.0776398,-58.59375,-1000.0,-1000.0,-42.48046875,-59.5703125
1574109827.0776398,-285.64453125,-1000.0,-1000.0,-14.6484375,-25.390625
1574109827.0776398,-418.9453125,-711.9140625,-807.6171875,-7.32421875,274.90234375
1574109827.0776398,41.015625,-9.765625,-375.48828125,-46.38671875,133.7890625
1574109827.0776398,148.4375,-75.68359375,-499.51171875,-41.9921875,-169.43359375
1574109827.0776398,12.20703125,-463.37890625,-697.265625,-29.296875,5.37109375
1574109827.1245148,57.12890625,-186.03515625,-437.5,-6.8359375,21.97265625
1574109827.1245148,58.59375,-318.359375,-606.93359375,12.6953125,-78.61328125
1574109827.1245148,-68.359375,-1000.0,-1000.0,1.46484375,-197.265625
1574109827.1245148,-45.8984375,-721.19140625,-795.8984375,-15.13671875,-117.1875
1574109827.1245148,65.91796875,-89.84375,-378.41796875,-20.99609375,-4.39453125
1574109827.1245148,-55.6640625,-659.1796875,-803.7109375,-9.765625,129.39453125
1574109827.1245148,-117.1875,-1000.0,-1000.0,-13.18359375,56.640625
1574109827.1245148,-372.0703125,-1000.0,-1000.0,-7.8125,68.84765625
1574109827.1245148,-282.71484375,-507.8125,-674.31640625,-16.6015625,310.05859375
1574109827.1245148,181.15234375,269.04296875,-146.484375,-29.78515625,-14.6484375
1574109827.1245148,40.52734375,-329.1015625,-605.95703125,-20.99609375,-175.29296875
1574109827.1245148,-43.45703125,-678.7109375,-822.75390625,-27.34375,-93.26171875
1574109827.1713898,148.4375,124.0234375,-196.2890625,-41.015625,-158.69140625
1574109827.1713898,180.17578125,320.3125,-52.734375,-25.390625,-30.76171875
1574109827.1713898,14.6484375,-416.50390625,-634.27734375,-15.625,49.8046875
1574109827.1713898,-41.50390625,-770.5078125,-939.453125,-18.06640625,-29.78515625
1574109827.1713898,-26.85546875,-649.4140625,-872.55859375,-29.78515625,-45.8984375
1574109827.1713898,-51.26953125,-880.37109375,-970.21484375,-30.76171875,-47.36328125
1574109827.1713898,-270.5078125,-1000.0,-1000.0,-9.27734375,83.984375
1574109827.1713898,-410.15625,-817.87109375,-909.66796875,-24.4140625,273.4375
1574109827.1713898,20.01953125,-97.16796875,-416.9921875,-55.17578125,-21.484375
1574109827.1713898,153.3203125,159.66796875,-176.7578125,-21.484375,-271.484375
1574109827.1713898,19.53125,-357.91015625,-607.91015625,0.9765625,53.22265625
1574109827.1713898,54.6875,-432.12890625,-750.48828125,-25.390625,171.38671875
1574109827.2182648,147.4609375,-42.96875,-454.1015625,-26.85546875,-3.41796875
1574109827.2182648,71.77734375,-209.9609375,-510.25390625,-2.44140625,2.44140625
1574109827.2182648,-39.0625,-611.81640625,-797.8515625,-6.8359375,56.640625
1574109827.2182648,50.29296875,-353.515625,-685.546875,-35.64453125,48.828125
1574109827.2182648,77.63671875,-325.68359375,-714.84375,-36.62109375,107.91015625
1574109827.2182648,-41.50390625,-827.1484375,-954.58984375,-6.34765625,117.67578125
1574109827.2182648,-443.359375,-1000.0,-1000.0,26.85546875,291.015625
1574109827.2182648,-422.36328125,-956.0546875,-1000.0,-1.953125,416.015625
1574109827.2182648,92.7734375,-273.92578125,-611.328125,-36.62109375,7.32421875
1574109827.2182648,61.5234375,-287.59765625,-597.65625,-12.6953125,-153.3203125
1574109827.2182648,-24.4140625,-555.6640625,-687.01171875,7.32421875,-65.4296875
1574109827.2182648,106.93359375,-57.12890625,-363.76953125,5.37109375,-99.12109375
1574109827.2651398,147.4609375,-49.8046875,-479.98046875,-5.859375,-170.41015625
1574109827.2651398,-8.30078125,-589.35546875,-835.9375,-8.7890625,-120.1171875
1574109827.2651398,-55.17578125,-607.421875,-731.4453125,11.71875,-19.53125
1574109827.2651398,57.6171875,-165.0390625,-487.79296875,3.41796875,-22.4609375
1574109827.2651398,76.66015625,-496.58203125,-833.0078125,-30.76171875,-112.3046875
1574109827.2651398,-227.05078125,-937.01171875,-1000.0,-19.53125,-21.97265625
1574109827.2651398,-412.109375,-1000.0,-1000.0,-18.5546875,371.09375
1574109827.2651398,-6.34765625,-333.0078125,-590.8203125,-27.34375,281.25
1574109827.2651398,141.11328125,-100.5859375,-487.3046875,-22.4609375,-136.23046875
1574109827.2651398,-166.50390625,-894.04296875,-1000.0,-20.99609375,-78.125
1574109827.2651398,-187.5,-764.6484375,-829.1015625,-27.34375,41.9921875
1574109827.2651398,133.30078125,133.30078125,-184.5703125,-23.92578125,19.53125
1574109827.3120148,117.67578125,-38.57421875,-388.671875,-5.859375,-84.9609375
1574109827.3120148,-31.25,-755.859375,-983.88671875,-12.20703125,-97.65625
1574109827.3120148,9.765625,-485.83984375,-716.796875,-19.53125,-84.47265625
1574109827.3120148,107.91015625,-23.4375,-342.7734375,-2.44140625,-166.9921875
1574109827.3120148,34.66796875,-399.90234375,-672.36328125,3.90625,-177.24609375
1574109827.3120148,-159.66796875,-968.26171875,-1000.0,-20.5078125,201.66015625
1574109827.3120148,-186.5234375,-1000.0,-1000.0,-25.390625,336.9140625
1574109827.3120148,32.2265625,-372.55859375,-565.91796875,-20.01953125,-17.578125
1574109827.3120148,26.3671875,-328.125,-537.59765625,0.48828125,-61.5234375
1574109827.3120148,-321.77734375,-972.65625,-1000.0,5.37109375,135.7421875
1574109827.3120148,-131.8359375,-470.21484375,-694.82421875,-32.71484375,128.41796875
1574109827.3120148,127.44140625,-14.6484375,-369.62890625,-19.04296875,-28.80859375
1574109827.3588898,-66.89453125,-532.71484375,-714.35546875,4.8828125,55.6640625
1574109827.3588898,-81.0546875,-702.1484375,-892.08984375,-15.625,22.94921875
1574109827.3588898,96.6796875,-227.05078125,-616.69921875,-47.8515625,-56.15234375
1574109827.3588898,117.67578125,-66.89453125,-412.59765625,-33.69140625,-176.26953125
1574109827.3588898,-57.12890625,-548.828125,-705.56640625,6.8359375,-115.234375
1574109827.3588898,-172.8515625,-1000.0,-1000.0,-7.8125,205.078125
1574109827.3588898,-139.16015625,-991.2109375,-991.2109375,-25.390625,228.515625
1574109827.3588898,-54.6875,-938.4765625,-981.93359375,-15.13671875,-12.20703125
1574109827.3588898,-257.32421875,-981.93359375,-1000.0,6.8359375,-62.98828125
1574109827.3588898,-418.45703125,-848.14453125,-934.08203125,4.8828125,210.9375
1574109827.3588898,48.33984375,-118.1640625,-475.09765625,-36.62109375,47.8515625
1574109827.3588898,163.0859375,37.109375,-364.2578125,-26.3671875,-271.97265625
1574109827.4057648,-4.39453125,-459.47265625,-672.36328125,-7.8125,-83.984375
1574109827.4057648,62.01171875,-185.546875,-468.75,-21.484375,27.34375
1574109827.4057648,115.72265625,-145.01953125,-571.2890625,-40.0390625,-70.3125
1574109827.4057648,-31.25,-860.83984375,-1000.0,-33.69140625,-155.76171875
1574109827.4057648,-86.42578125,-834.47265625,-888.671875,-13.671875,-57.12890625
1574109827.4057648,-79.1015625,-770.5078125,-889.6484375,-6.34765625,212.40234375
1574109827.4057648,-95.21484375,-1000.0,-1000.0,-15.13671875,125.9765625
1574109827.4057648,-81.0546875,-979.98046875,-980.46875,-30.2734375,-77.63671875
1574109827.4057648,-382.8125,-1000.0,-1000.0,-15.13671875,98.6328125
1574109827.4057648,-233.3984375,-393.06640625,-563.96484375,-24.90234375,292.48046875
1574109827.4057648,199.21875,303.22265625,-119.62890625,-33.69140625,65.91796875
1574109827.4057648,51.26953125,-395.01953125,-683.10546875,-22.4609375,-37.109375
1574109827.4526398,-31.25,-717.7734375,-867.67578125,-26.85546875,-95.703125
1574109827.4526398,120.1171875,20.01953125,-289.55078125,-15.625,-107.421875
1574109827.4526398,162.59765625,160.15625,-216.796875,0.0,-103.02734375
1574109827.4526398,-1.953125,-553.22265625,-776.85546875,0.9765625,-30.76171875
1574109827.4526398,-47.36328125,-692.3828125,-857.91015625,2.44140625,-6.8359375
1574109827.4526398,-38.57421875,-646.484375,-817.3828125,12.20703125,-14.16015625
1574109827.4526398,-48.33984375,-934.08203125,-974.609375,4.39453125,3.90625
1574109827.4526398,-292.48046875,-1000.0,-1000.0,3.90625,-68.359375
1574109827.4526398,-423.33984375,-774.4140625,-865.72265625,-7.8125,133.7890625
1574109827.4526398,47.36328125,56.15234375,-266.6015625,-33.203125,121.58203125
1574109827.4526398,144.53125,117.1875,-209.9609375,-20.01953125,-118.1640625
1574109827.4526398,8.7890625,-491.2109375,-736.81640625,-18.5546875,-32.71484375
1574109827.4995148,64.94140625,-377.44140625,-694.82421875,-33.69140625,-37.109375
1574109827.4995148,135.25390625,20.99609375,-369.140625,-35.64453125,-147.94921875
1574109827.4995148,32.71484375,-276.85546875,-548.828125,-5.37109375,-62.98828125
1574109827.4995148,-73.2421875,-674.31640625,-852.5390625,7.32421875,-54.19921875
1574109827.4995148,13.671875,-481.93359375,-803.7109375,-19.04296875,-77.63671875
1574109827.4995148,-28.80859375,-773.4375,-949.21875,-12.20703125,2.44140625
1574109827.4995148,-96.19140625,-1000.0,-1000.0,-2.9296875,100.5859375
1574109827.4995148,-382.32421875,-966.796875,-968.26171875,4.39453125,280.2734375
1574109827.4995148,-345.21484375,-881.34765625,-1000.0,-11.71875,328.125
1574109827.4995148,76.66015625,-361.81640625,-712.40234375,-40.0390625,-22.4609375
1574109827.4995148,41.50390625,-320.3125,-562.98828125,-30.76171875,-132.32421875
1574109827.4995148,-18.06640625,-555.17578125,-714.84375,-18.06640625,-41.9921875
1574109827.5463898,97.16796875,-214.35546875,-569.3359375,-23.92578125,-48.828125
1574109827.5463898,145.5078125,-68.359375,-497.0703125,-24.90234375,-213.37890625
1574109827.5463898,11.23046875,-467.7734375,-685.546875,-24.90234375,-246.58203125
1574109827.5463898,-39.0625,-548.828125,-711.42578125,-20.01953125,-101.07421875
1574109827.5463898,72.265625,-204.58984375,-556.640625,-14.16015625,-69.3359375
1574109827.5463898,-11.23046875,-791.015625,-938.4765625,-11.23046875,16.6015625
1574109827.5463898,-317.3828125,-1000.0,-1000.0,3.41796875,61.5234375
1574109827.5463898,-426.7578125,-725.09765625,-816.40625,4.8828125,255.37109375
1574109827.5463898,0.0,-78.61328125,-406.73828125,-25.390625,335.9375
1574109827.5463898,150.390625,-70.80078125,-526.3671875,-41.015625,90.8203125
1574109827.5463898,-32.2265625,-667.48046875,-903.3203125,-28.3203125,-24.90234375
1574109827.5463898,-140.625,-1000.0,-1000.0,-8.30078125,-71.2890625
1574109827.5932648,-1.46484375,-566.89453125,-816.40625,-18.5546875,-165.0390625
1574109827.5932648,73.73046875,-386.23046875,-764.6484375,-27.34375,-67.87109375
1574109827.5932648,-11.71875,-696.2890625,-901.85546875,-26.85546875,70.80078125
1574109827.5932648,35.15625,-286.1328125,-520.99609375,-32.2265625,-30.2734375
1574109827.5932648,98.6328125,-47.36328125,-387.20703125,-10.25390625,-89.35546875
1574109827.5932648,0.48828125,-659.66796875,-815.4296875,0.9765625,27.83203125
1574109827.5932648,-361.328125,-1000.0,-1000.0,-4.8828125,210.44921875
1574109827.5932648,-215.8203125,-400.390625,-581.0546875,-29.78515625,300.29296875
1574109827.5932648,159.66796875,190.91796875,-159.66796875,-46.38671875,-75.68359375
1574109827.5932648,1.46484375,-419.43359375,-660.64453125,-21.484375,-180.17578125
1574109827.5932648,-82.03125,-746.58203125,-909.1796875,-20.5078125,-162.109375
1574109827.5932648,83.0078125,-167.96875,-502.9296875,-24.4140625,-176.26953125
1574109827.6401398,149.90234375,150.390625,-223.14453125,-11.23046875,-169.921875
1574109827.6401398,-20.5078125,-401.85546875,-587.40234375,-19.53125,-192.87109375
1574109827.6401398,-159.66796875,-1000.0,-1000.0,-25.87890625,-99.609375
1574109827.6401398,27.83203125,-468.26171875,-700.1953125,-35.64453125,-118.1640625
1574109827.6401398,137.20703125,-23.4375,-385.25390625,-20.5078125,-99.609375
1574109827.6401398,-169.921875,-671.875,-826.171875,17.08984375,46.38671875
1574109827.6401398,-344.7265625,-1000.0,-1000.0,-0.9765625,297.36328125
1574109827.6401398,-31.73828125,-544.921875,-741.2109375,-33.203125,162.109375
1574109827.6401398,145.01953125,-64.94140625,-423.828125,-33.69140625,-174.31640625
1574109827.6401398,-198.73046875,-661.1328125,-792.96875,-5.37109375,-74.21875
1574109827.6401398,-267.578125,-777.34375,-932.6171875,-8.7890625,32.71484375
1574109827.6401398,93.26171875,-240.72265625,-642.08984375,-37.59765625,-113.28125
1574109827.6870148,86.42578125,-208.49609375,-542.48046875,-11.71875,-150.390625
1574109827.6870148,-15.625,-505.37109375,-714.84375,23.92578125,16.6015625
1574109827.6870148,36.1328125,-377.9296875,-659.66796875,7.8125,209.9609375
1574109827.6870148,124.0234375,-149.90234375,-575.1953125,-6.8359375,58.10546875
1574109827.6870148,26.85546875,-509.27734375,-808.59375,2.44140625,-83.984375
1574109827.6870148,-151.3671875,-967.28515625,-1000.0,22.94921875,158.203125
1574109827.6870148,-156.25,-998.046875,-998.046875,30.2734375,227.5390625
1574109827.6870148,-94.7265625,-978.515625,-990.234375,0.0,-47.36328125
1574109827.6870148,-71.77734375,-980.95703125,-993.1640625,-8.30078125,-235.3515625
1574109827.6870148,-397.94921875,-1000.0,-1000.0,13.18359375,-32.71484375
1574109827.6870148,-258.30078125,-472.65625,-662.109375,-5.37109375,56.640625
1574109827.6870148,184.08203125,131.34765625,-305.6640625,-30.76171875,-167.96875
1574109827.7338898,33.69140625,-447.75390625,-733.3984375,-15.13671875,-86.42578125
1574109827.7338898,-29.296875,-565.4296875,-722.65625,7.32421875,-35.64453125
1574109827.7338898,104.98046875,15.625,-293.9453125,5.37109375,-44.43359375
1574109827.7338898,131.8359375,-32.2265625,-428.22265625,-15.13671875,-25.87890625
1574109827.7338898,-10.7421875,-594.23828125,-817.3828125,-22.4609375,-59.5703125
1574109827.7338898,-139.6484375,-1000.0,-1000.0,-17.578125,70.80078125
1574109827.7338898,-124.0234375,-977.5390625,-989.2578125,-17.578125,205.078125
1574109827.7338898,-37.59765625,-929.6875,-973.6328125,-21.484375,129.39453125
1574109827.7338898,-260.25390625,-1000.0,-1000.0,0.9765625,70.3125
1574109827.7338898,-415.52734375,-756.8359375,-834.9609375,-2.9296875,177.24609375
1574109827.7338898,62.5,178.22265625,-144.04296875,-27.83203125,3.90625
1574109827.7338898,157.71484375,169.43359375,-191.40625,-7.32421875,-160.15625
1574109827.7807648,7.8125,-548.828125,-800.29296875,-0.9765625,-59.5703125
1574109827.7807648,72.265625,-328.125,-626.46484375,-25.87890625,-41.015625
1574109827.7807648,155.76171875,186.5234375,-187.01171875,-26.3671875,-82.03125
1574109827.7807648,83.49609375,-110.3515625,-441.89453125,0.0,-92.7734375
1574109827.7807648,-66.89453125,-837.40234375,-983.3984375,-6.34765625,-4.8828125
1574109827.7807648,-108.3984375,-997.0703125,-1000.0,-31.73828125,51.7578125
1574109827.7807648,-88.8671875,-958.984375,-981.4453125,-38.0859375,62.98828125
1574109827.7807648,-92.7734375,-989.2578125,-992.67578125,-17.08984375,32.71484375
1574109827.7807648,-404.78515625,-1000.0,-1000.0,-14.16015625,162.109375
1574109827.7807648,-263.18359375,-546.38671875,-771.484375,-51.7578125,231.4453125
1574109827.7807648,90.8203125,-239.74609375,-604.4921875,-40.0390625,-60.05859375
1574109827.7807648,-84.9609375,-820.3125,-958.984375,-4.8828125,-41.50390625
1574109827.8276398,-28.80859375,-577.63671875,-754.8828125,-20.5078125,75.1953125
1574109827.8276398,149.4140625,-32.2265625,-440.91796875,-34.66796875,-57.12890625
1574109827.8276398,126.953125,-118.65234375,-536.62109375,-23.4375,-118.65234375
1574109827.8276398,-18.06640625,-542.48046875,-749.0234375,-1.46484375,-90.33203125
1574109827.8276398,-17.578125,-547.8515625,-737.79296875,6.8359375,-66.89453125
1574109827.8276398,-42.96875,-701.66015625,-857.91015625,-12.6953125,-13.671875
1574109827.8276398,-75.1953125,-1000.0,-1000.0,-36.62109375,-5.859375
1574109827.8276398,-284.66796875,-1000.0,-1000.0,-12.6953125,-75.1953125
1574109827.8276398,-431.15234375,-774.90234375,-871.58203125,3.90625,110.3515625
1574109827.8276398,34.66796875,-32.2265625,-434.5703125,-22.94921875,69.3359375
1574109827.8276398,177.734375,86.42578125,-364.2578125,-22.94921875,-101.5625
1574109827.8276398,60.546875,-255.37109375,-525.87890625,-16.6015625,-33.69140625
1574109827.8745148,73.2421875,-145.5078125,-419.43359375,0.48828125,-37.109375
1574109827.8745148,27.83203125,-446.2890625,-696.77734375,7.32421875,-113.28125
1574109827.8745148,-9.27734375,-742.1875,-995.1171875,-10.25390625,-236.81640625
1574109827.8745148,4.39453125,-505.859375,-742.67578125,-14.6484375,-142.578125
1574109827.8745148,67.3828125,-74.70703125,-355.46875,-16.6015625,43.9453125
1574109827.8745148,-28.80859375,-570.3125,-747.0703125,-13.18359375,39.0625
1574109827.8745148,-117.67578125,-1000.0,-1000.0,-14.6484375,-126.953125
1574109827.8745148,-391.11328125,-1000.0,-1000.0,-13.671875,10.7421875
1574109827.8745148,-271.97265625,-422.36328125,-582.03125,-24.90234375,217.28515625
1574109827.8745148,201.66015625,450.68359375,27.83203125,-26.3671875,-31.73828125
1574109827.8745148,56.15234375,-270.01953125,-567.87109375,-21.484375,-30.2734375
1574109827.8745148,-40.0390625,-675.29296875,-850.5859375,-33.69140625,127.9296875
1574109827.9213898,118.65234375,62.98828125,-290.0390625,-34.66796875,-23.4375
1574109827.9213898,160.15625,278.80859375,-129.39453125,-25.87890625,-74.21875
1574109827.9213898,1.953125,-415.0390625,-652.34375,-27.83203125,-3.41796875
1574109827.9213898,-65.4296875,-800.29296875,-957.51953125,-30.2734375,-51.26953125
1574109827.9213898,-33.203125,-658.203125,-895.5078125,-17.578125,8.7890625
1574109827.9213898,-47.36328125,-881.8359375,-990.234375,-13.18359375,38.57421875
1574109827.9213898,-265.13671875,-1000.0,-1000.0,-3.90625,-46.875
1574109827.9213898,-411.62109375,-825.68359375,-917.48046875,-19.04296875,178.22265625
1574109827.9213898,0.48828125,-128.90625,-475.09765625,-55.17578125,183.10546875
1574109827.9213898,150.390625,160.15625,-218.26171875,-23.4375,-79.1015625
1574109827.9213898,16.11328125,-367.1875,-615.72265625,-4.8828125,15.625
1574109827.9213898,46.875,-433.59375,-741.2109375,-35.64453125,-5.859375
1574109827.9682648,144.53125,-33.203125,-443.84765625,-49.8046875,-152.83203125
1574109827.9682648,61.03515625,-237.3046875,-534.66796875,-37.59765625,-90.8203125
1574109827.9682648,-39.0625,-628.41796875,-812.01171875,-38.0859375,-1.46484375
1574109827.9682648,55.6640625,-351.07421875,-652.34375,-68.359375,-25.390625
1574109827.9682648,105.95703125,-282.71484375,-652.83203125,-95.703125,34.66796875
1574109827.9682648,-45.41015625,-829.58984375,-947.75390625,-87.40234375,96.6796875
1574109827.9682648,-391.11328125,-1000.0,-1000.0,-77.1484375,237.3046875
1574109827.9682648,-330.56640625,-988.28125,-1000.0,-113.28125,354.98046875
1574109827.9682648,82.03125,-504.39453125,-781.25,-165.52734375,-23.4375
1574109827.9682648,50.29296875,-406.25,-716.796875,-155.2734375,-206.0546875
1574109827.9682648,-118.65234375,-845.703125,-946.77734375,-148.92578125,-75.68359375
1574109827.9682648,-13.671875,-683.59375,-873.53515625,-187.5,-75.68359375
1574109828.0151398,148.92578125,-221.19140625,-619.62890625,-209.47265625,-157.2265625
1574109828.0151398,14.6484375,-567.87109375,-812.01171875,-199.70703125,-165.52734375
1574109828.0151398,-51.7578125,-624.0234375,-741.69921875,-187.5,-59.5703125
1574109828.0151398,88.37890625,-144.04296875,-469.7265625,-186.5234375,4.39453125
1574109828.0151398,93.75,-520.99609375,-830.56640625,-181.15234375,-2.9296875
1574109828.0151398,-198.2421875,-937.5,-1000.0,-152.83203125,-3.41796875
1574109828.0151398,-347.65625,-1000.0,-1000.0,-145.5078125,235.3515625
1574109828.0151398,-8.7890625,-469.7265625,-676.26953125,-149.90234375,287.109375
1574109828.0151398,138.671875,-258.30078125,-591.30859375,-129.8828125,-71.77734375
1574109828.0151398,-242.1875,-980.46875,-1000.0,-95.21484375,-137.20703125
1574109828.0151398,-292.48046875,-651.3671875,-731.4453125,-96.6796875,-122.55859375
1574109828.0151398,122.0703125,137.6953125,-171.38671875,-105.95703125,-143.5546875
1574109828.0620148,101.5625,-150.390625,-482.421875,-66.89453125,-44.43359375
1574109828.0620148,-28.3203125,-767.578125,-992.1875,-59.08203125,-58.59375
1574109828.0620148,18.5546875,-463.8671875,-696.77734375,-49.31640625,-74.70703125
1574109828.0620148,136.23046875,132.32421875,-162.109375,-21.97265625,-85.9375
1574109828.0620148,71.77734375,-185.05859375,-452.63671875,-11.23046875,-111.328125
1574109828.0620148,-130.859375,-895.5078125,-986.328125,-8.30078125,38.0859375
1574109828.0620148,-165.0390625,-1000.0,-1000.0,0.9765625,115.234375
1574109828.0620148,41.9921875,-330.56640625,-528.3203125,16.6015625,-16.11328125
1574109828.0620148,68.359375,-194.3359375,-423.828125,32.71484375,-140.13671875
1574109828.0620148,-294.43359375,-953.61328125,-1000.0,12.6953125,36.1328125
1574109828.0620148,-138.671875,-452.63671875,-684.08203125,-4.8828125,153.3203125
1574109828.0620148,159.1796875,128.41796875,-232.421875,15.13671875,-88.37890625
1574109828.1088898,-57.6171875,-539.55078125,-687.5,38.0859375,-86.42578125
1574109828.1088898,-81.0546875,-703.61328125,-870.1171875,33.69140625,20.01953125
1574109828.1088898,108.3984375,-157.71484375,-537.109375,14.16015625,-19.04296875
1574109828.1088898,138.671875,38.57421875,-307.6171875,34.66796875,-25.390625
1574109828.1088898,-33.69140625,-422.8515625,-583.49609375,66.40625,78.125
1574109828.1088898,-184.08203125,-1000.0,-1000.0,58.59375,310.546875
1574109828.1088898,-134.765625,-1000.0,-1000.0,33.69140625,305.6640625
1574109828.1088898,46.38671875,-522.94921875,-703.125,23.92578125,44.43359375
1574109828.1088898,-159.66796875,-596.19140625,-737.79296875,52.734375,50.29296875
1574109828.1088898,-418.9453125,-910.15625,-975.09765625,54.19921875,255.859375
1574109828.1088898,19.53125,-175.29296875,-524.90234375,7.32421875,67.3828125
1574109828.1088898,142.08984375,-36.1328125,-430.6640625,13.671875,-123.53515625
1574109828.1557648,-8.30078125,-483.3984375,-697.75390625,36.1328125,-18.5546875
1574109828.1557648,41.50390625,-272.94921875,-537.109375,44.921875,34.66796875
1574109828.1557648,76.171875,-291.015625,-675.29296875,37.109375,-31.73828125
1574109828.1557648,-50.29296875,-931.15234375,-1000.0,27.83203125,-75.1953125
1574109828.1557648,-86.42578125,-817.87109375,-866.69921875,35.64453125,34.1796875
1574109828.1557648,-78.61328125,-743.1640625,-868.1640625,54.19921875,109.375
1574109828.1557648,-101.5625,-1000.0,-1000.0,45.41015625,102.05078125
1574109828.1557648,-69.3359375,-979.98046875,-980.95703125,31.25,-41.015625
1574109828.1557648,-375.0,-1000.0,-1000.0,43.9453125,107.421875
1574109828.1557648,-267.08984375,-452.1484375,-603.02734375,33.69140625,350.09765625
1574109828.1557648,187.5,264.16015625,-153.3203125,19.53125,18.5546875
1574109828.1557648,39.0625,-394.53125,-688.96484375,15.13671875,-125.48828125
1574109828.2026398,-54.6875,-711.9140625,-857.91015625,18.06640625,-117.1875
1574109828.2026398,111.328125,11.71875,-321.2890625,27.34375,-179.6875
1574109828.2026398,151.3671875,139.16015625,-269.53125,38.57421875,-230.46875
1574109828.2026398,6.34765625,-507.8125,-740.234375,25.390625,-107.421875
1574109828.2026398,-44.921875,-700.68359375,-857.421875,15.13671875,6.34765625
1574109828.2026398,-39.55078125,-653.3203125,-818.359375,41.015625,57.12890625
1574109828.2026398,-51.7578125,-909.66796875,-950.1953125,50.29296875,110.3515625
1574109828.2026398,-276.3671875,-1000.0,-1000.0,62.01171875,29.78515625
1574109828.2026398,-410.64453125,-768.5546875,-853.515625,45.8984375,144.04296875
1574109828.2026398,28.3203125,47.8515625,-259.27734375,-5.859375,50.78125
1574109828.2026398,138.18359375,141.11328125,-187.5,18.06640625,-175.78125
1574109828.2026398,27.83203125,-396.484375,-647.94921875,20.99609375,-115.72265625
1574109828.2495148,72.265625,-356.4453125,-685.05859375,-7.8125,-136.23046875
1574109828.2495148,152.34375,122.55859375,-282.2265625,-7.32421875,-201.171875
1574109828.2495148,68.84765625,-100.5859375,-383.7890625,16.6015625,-124.51171875
1574109828.2495148,-46.38671875,-597.16796875,-796.875,21.97265625,-8.30078125
1574109828.2495148,34.66796875,-408.69140625,-728.02734375,0.48828125,-19.53125
1574109828.2495148,-26.85546875,-736.328125,-911.1328125,2.44140625,35.15625
1574109828.2495148,-94.23828125,-1000.0,-1000.0,18.5546875,3.41796875
1574109828.2495148,-384.765625,-957.51953125,-962.890625,49.31640625,274.90234375
1574109828.2495148,-386.23046875,-974.12109375,-1000.0,33.203125,477.05078125
1574109828.2495148,54.6875,-442.87109375,-732.91015625,-6.8359375,-11.23046875
1574109828.2495148,34.66796875,-335.44921875,-591.30859375,7.8125,-159.1796875
1574109828.2495148,-45.8984375,-602.05078125,-775.87890625,13.671875,31.73828125
1574109828.2963898,86.42578125,-233.88671875,-606.93359375,-19.04296875,-20.99609375
1574109828.2963898,131.8359375,-134.765625,-571.2890625,-23.4375,-151.3671875
1574109828.2963898,1.953125,-521.97265625,-748.046875,-2.44140625,-94.7265625
1574109828.2963898,-20.99609375,-502.9296875,-650.87890625,1.953125,11.71875
1574109828.2963898,77.1484375,-162.59765625,-493.65234375,-6.34765625,23.92578125
1574109828.2963898,-11.71875,-783.203125,-937.5,-11.71875,53.22265625
1574109828.2963898,-299.31640625,-1000.0,-1000.0,7.32421875,60.05859375
1574109828.2963898,-431.15234375,-765.625,-846.19140625,9.27734375,247.55859375
1574109828.2963898,5.859375,-17.578125,-350.5859375,-9.27734375,239.74609375
1574109828.2963898,173.828125,76.171875,-367.1875,-10.25390625,-59.5703125
1574109828.2963898,12.20703125,-471.6796875,-748.53515625,-8.30078125,-207.03125
1574109828.2963898,-59.08203125,-716.796875,-859.86328125,13.18359375,-240.72265625
1574109828.3432648,59.08203125,-265.625,-562.01171875,10.25390625,-200.68359375
1574109828.3432648,93.75,-247.55859375,-627.44140625,-21.484375,-156.25
1574109828.3432648,-7.32421875,-665.52734375,-891.6015625,-28.80859375,-89.84375
1574109828.3432648,48.828125,-212.890625,-453.61328125,-23.4375,-20.99609375
1574109828.3432648,99.12109375,-38.0859375,-379.39453125,-21.484375,-41.50390625
1574109828.3432648,-12.20703125,-696.2890625,-851.07421875,-12.20703125,24.90234375
1574109828.3432648,-361.328125,-1000.0,-1000.0,-3.41796875,269.04296875
1574109828.3432648,-228.02734375,-433.10546875,-633.30078125,-20.99609375,325.1953125
1574109828.3432648,150.390625,160.15625,-210.9375,-17.578125,25.390625
1574109828.3432648,12.6953125,-361.328125,-615.72265625,-4.39453125,-5.859375
1574109828.3432648,-83.984375,-730.95703125,-894.53125,-16.6015625,-30.2734375
1574109828.3432648,95.21484375,-99.12109375,-416.50390625,-29.296875,14.16015625
1574109828.3901398,174.8046875,247.0703125,-141.11328125,-0.9765625,19.53125
1574109828.3901398,1.46484375,-363.28125,-572.75390625,19.04296875,-131.8359375
1574109828.3901398,-144.53125,-1000.0,-1000.0,0.48828125,-48.828125
1574109828.3901398,16.11328125,-436.03515625,-698.73046875,-17.08984375,-8.7890625
1574109828.3901398,127.44140625,-87.890625,-415.52734375,1.953125,-100.09765625
1574109828.3901398,-198.2421875,-712.40234375,-828.61328125,37.109375,18.5546875
1574109828.3901398,-420.41015625,-1000.0,-1000.0,13.18359375,318.359375
1574109828.3901398,-10.7421875,-392.578125,-652.34375,-24.90234375,92.28515625
1574109828.3901398,166.015625,98.6328125,-256.8359375,4.8828125,-194.3359375
1574109828.3901398,-109.86328125,-511.23046875,-667.48046875,22.4609375,-56.640625
1574109828.3901398,-146.97265625,-744.62890625,-934.08203125,0.9765625,-7.8125
1574109828.3901398,51.7578125,-480.46875,-779.78515625,-11.23046875,-18.5546875
1574109828.4370148,61.5234375,-337.40234375,-626.953125,-2.44140625,-52.734375
1574109828.4370148,-7.8125,-491.2109375,-689.94140625,2.9296875,90.33203125
1574109828.4370148,30.76171875,-379.39453125,-637.20703125,-0.48828125,143.06640625
1574109828.4370148,133.7890625,-82.51953125,-489.2578125,5.859375,-90.33203125
1574109828.4370148,76.171875,-258.30078125,-573.73046875,24.90234375,-174.31640625
1574109828.4370148,-91.796875,-800.78125,-921.38671875,25.87890625,152.34375
1574109828.4370148,-112.79296875,-979.4921875,-1000.0,-2.9296875,354.4921875
1574109828.4370148,-34.1796875,-865.234375,-954.1015625,-24.90234375,62.01171875
1574109828.4370148,23.4375,-661.1328125,-866.2109375,-21.484375,-97.65625
1574109828.4370148,-347.65625,-931.15234375,-993.65234375,8.30078125,30.76171875
1574109828.4370148,-241.69921875,-461.42578125,-636.71875,-9.765625,62.98828125
1574109828.4370148,197.75390625,245.60546875,-229.00390625,-43.45703125,-45.8984375
1574109828.4838898,55.17578125,-345.21484375,-656.73828125,-38.0859375,-100.09765625
1574109828.4838898,-30.2734375,-597.65625,-745.60546875,-25.87890625,-94.7265625
1574109828.4838898,98.14453125,11.23046875,-284.66796875,-29.296875,-49.31640625
1574109828.4838898,153.3203125,104.98046875,-299.8046875,-24.4140625,30.2734375
1574109828.4838898,-10.25390625,-550.78125,-786.62109375,-8.30078125,227.05078125
1574109828.4838898,-150.390625,-1000.0,-1000.0,-0.48828125,360.3515625
1574109828.4838898,-147.94921875,-969.7265625,-984.375,5.37109375,371.58203125
1574109828.4838898,-69.3359375,-913.57421875,-964.84375,-1.953125,206.54296875
1574109828.4838898,-250.0,-1000.0,-1000.0,0.0,95.21484375
1574109828.4838898,-389.16015625,-748.53515625,-831.0546875,5.37109375,339.84375
1574109828.4838898,70.80078125,221.6796875,-89.84375,-9.765625,229.00390625
1574109828.4838898,160.64453125,185.546875,-158.203125,4.39453125,-38.0859375
1574109828.5307648,11.71875,-547.36328125,-816.89453125,-2.9296875,77.1484375
1574109828.5307648,96.19140625,-235.83984375,-559.08203125,-27.83203125,5.37109375
1574109828.5307648,171.875,262.20703125,-104.98046875,-16.6015625,-61.5234375
1574109828.5307648,97.65625,-8.30078125,-331.0546875,6.34765625,30.76171875
1574109828.5307648,-42.48046875,-738.76953125,-908.69140625,3.90625,-9.765625
1574109828.5307648,-90.8203125,-1000.0,-1000.0,-5.859375,55.17578125
1574109828.5307648,-76.66015625,-921.875,-971.6796875,-11.23046875,25.87890625
1574109828.5307648,-50.29296875,-880.37109375,-988.28125,4.8828125,-72.75390625
1574109828.5307648,-347.65625,-1000.0,-1000.0,8.7890625,173.33984375
1574109828.5307648,-242.67578125,-563.96484375,-753.90625,-25.390625,303.7109375
1574109828.5307648,79.58984375,-311.5234375,-653.3203125,-25.390625,24.4140625
1574109828.5307648,-87.40234375,-864.2578125,-1000.0,-9.765625,-56.15234375
1574109828.5776398,-31.73828125,-598.14453125,-780.76171875,-21.97265625,63.4765625
1574109828.5776398,138.18359375,-73.2421875,-476.07421875,-34.1796875,60.05859375
1574109828.5776398,144.53125,-58.10546875,-455.078125,-21.484375,-33.69140625
1574109828.5776398,-14.6484375,-521.484375,-708.49609375,-0.9765625,-12.20703125
1574109828.5776398,-33.69140625,-595.21484375,-785.15625,-6.34765625,76.66015625
1574109828.5776398,-32.71484375,-717.7734375,-877.9296875,-24.90234375,126.953125
1574109828.5776398,-39.0625,-1000.0,-1000.0,-36.62109375,112.3046875
1574109828.5776398,-235.83984375,-1000.0,-1000.0,-7.32421875,41.9921875
1574109828.5776398,-402.34375,-754.8828125,-844.7265625,-1.953125,274.90234375
1574109828.5776398,40.52734375,10.7421875,-341.30859375,-35.15625,235.3515625
1574109828.5776398,168.45703125,57.12890625,-362.3046875,-31.73828125,-87.890625
1574109828.5776398,24.90234375,-411.62109375,-672.8515625,-25.390625,-65.91796875
1574109828.6245148,36.62109375,-305.17578125,-542.48046875,-14.6484375,-79.58984375
1574109828.6245148,12.20703125,-527.34375,-738.28125,-11.71875,-141.6015625
1574109828.6245148,8.7890625,-717.28515625,-962.890625,-17.578125,-176.26953125
1574109828.6245148,5.859375,-553.7109375,-791.50390625,-6.34765625,-102.05078125
1574109828.6245148,46.38671875,-185.546875,-426.26953125,-3.41796875,-0.9765625
1574109828.6245148,-9.27734375,-514.6484375,-703.61328125,-13.671875,75.1953125
1574109828.6245148,-59.08203125,-1000.0,-1000.0,-26.3671875,103.02734375
1574109828.6245148,-360.83984375,-1000.0,-1000.0,-19.53125,167.96875
1574109828.6245148,-288.57421875,-449.21875,-599.609375,-15.625,276.3671875
1574109828.6245148,184.5703125,358.88671875,-44.921875,-15.13671875,28.3203125
1574109828.6245148,42.96875,-336.9140625,-609.375,-8.30078125,-68.359375
1574109828.6245148,-50.78125,-725.09765625,-890.625,-15.13671875,-97.65625
1574109828.6713898,109.375,-12.20703125,-340.33203125,-24.90234375,-160.64453125
1574109828.6713898,139.6484375,157.71484375,-212.40234375,-5.37109375,-137.6953125
1574109828.6713898,-3.41796875,-446.77734375,-667.48046875,7.8125,-79.58984375
1574109828.6713898,-79.1015625,-864.2578125,-1000.0,-6.34765625,-68.84765625
1574109828.6713898,-48.828125,-766.6015625,-960.9375,-14.16015625,-140.13671875
1574109828.6713898,-57.12890625,-922.36328125,-983.88671875,-11.71875,-20.01953125
1574109828.6713898,-260.25390625,-1000.0,-1000.0,3.90625,155.76171875
1574109828.6713898,-419.921875,-861.81640625,-954.1015625,-10.7421875,388.671875
1574109828.6713898,-23.92578125,-217.28515625,-556.15234375,-27.34375,204.58984375
1574109828.6713898,160.15625,222.65625,-158.69140625,-5.859375,-130.859375
1574109828.6713898,27.34375,-296.875,-548.33984375,-7.8125,-75.68359375
1574109828.6713898,47.36328125,-391.6015625,-706.54296875,-20.01953125,-122.0703125
1574109828.7182648,149.90234375,65.91796875,-367.67578125,-23.92578125,-205.56640625
1574109828.7182648,83.0078125,-114.74609375,-454.58984375,-2.9296875,-203.125
1574109828.7182648,-21.484375,-523.4375,-751.46484375,14.6484375,-64.94140625
1574109828.7182648,48.33984375,-328.61328125,-668.45703125,-11.71875,-75.1953125
1574109828.7182648,107.421875,-185.546875,-615.234375,-22.94921875,-31.73828125
1574109828.7182648,-24.90234375,-715.33203125,-895.99609375,-2.44140625,48.828125
1574109828.7182648,-381.8359375,-1000.0,-1000.0,9.765625,192.87109375
1574109828.7182648,-330.56640625,-967.28515625,-1000.0,-14.16015625,294.921875
1574109828.7182648,96.19140625,-275.390625,-606.93359375,-42.48046875,-122.55859375
1574109828.7182648,72.265625,-161.62109375,-492.1875,-13.671875,-196.2890625
1574109828.7182648,-74.70703125,-641.11328125,-782.2265625,20.99609375,-27.83203125
1574109828.7182648,56.640625,-226.07421875,-550.78125,-1.46484375,-38.0859375
1574109828.7651398,148.92578125,-25.390625,-506.34765625,-11.23046875,-65.91796875
1574109828.7651398,7.8125,-516.11328125,-798.33984375,13.18359375,-84.47265625
1574109828.7651398,-43.9453125,-555.6640625,-694.3359375,-11.23046875,-24.4140625
1574109828.7651398,66.89453125,-85.44921875,-421.38671875,-30.76171875,-34.66796875
1574109828.7651398,92.7734375,-376.953125,-748.53515625,-15.625,-29.296875
1574109828.7651398,-195.3125,-883.30078125,-988.28125,5.859375,115.72265625
1574109828.7651398,-411.1328125,-1000.0,-1000.0,5.859375,308.59375
1574109828.7651398,-26.85546875,-355.46875,-590.33203125,-7.8125,260.7421875
1574109828.7651398,141.11328125,-104.00390625,-477.05078125,-8.30078125,-19.04296875
1574109828.7651398,-149.90234375,-781.73828125,-961.42578125,0.0,11.23046875
1574109828.7651398,-151.3671875,-547.8515625,-703.61328125,0.0,2.9296875
1574109828.7651398,122.0703125,98.14453125,-229.98046875,-9.765625,-132.32421875
1574109828.8120148,100.09765625,-100.09765625,-429.6875,4.39453125,-155.76171875
1574109828.8120148,-43.45703125,-766.11328125,-974.12109375,4.8828125,-51.7578125
1574109828.8120148,-8.7890625,-541.015625,-759.765625,-12.20703125,-12.6953125
1574109828.8120148,112.3046875,18.5546875,-312.98828125,-3.90625,-100.09765625
1574109828.8120148,43.45703125,-344.7265625,-617.67578125,4.39453125,-80.56640625
1574109828.8120148,-154.296875,-973.6328125,-1000.0,0.9765625,183.10546875
1574109828.8120148,-173.828125,-1000.0,-1000.0,-11.71875,272.4609375
1574109828.8120148,35.15625,-348.14453125,-563.96484375,-23.4375,-36.62109375
1574109828.8120148,18.06640625,-325.1953125,-552.734375,-5.859375,-112.3046875
1574109828.8120148,-133.30078125,-813.4765625,-971.6796875,-5.37109375,203.61328125
1574109828.8120148,-11.71875,-496.09375,-801.7578125,-27.83203125,115.234375
1574109828.8120148,48.828125,-476.07421875,-773.92578125,-21.97265625,-223.6328125
1574109828.8588898,-115.72265625,-760.7421875,-875.0,7.8125,-49.8046875
1574109828.8588898,-359.86328125,-958.49609375,-1000.0,-3.90625,-53.7109375
1574109828.8588898,-77.63671875,-419.921875,-740.234375,-43.9453125,-155.76171875
1574109828.8588898,175.78125,134.27734375,-247.0703125,-20.01953125,-160.15625
1574109828.8588898,-25.87890625,-404.296875,-575.1953125,9.27734375,-131.8359375
1574109828.8588898,-146.484375,-1000.0,-1000.0,0.0,86.9140625
1574109828.8588898,-91.30859375,-1000.0,-1000.0,-27.34375,190.91796875
1574109828.8588898,50.78125,-583.49609375,-741.69921875,-33.203125,-40.0390625
1574109828.8588898,-149.90234375,-595.21484375,-734.86328125,16.11328125,-55.6640625
1574109828.8588898,-401.85546875,-859.375,-936.03515625,6.8359375,14.16015625
1574109828.8588898,35.15625,-99.609375,-487.3046875,-47.36328125,-66.89453125
1574109828.8588898,160.64453125,-5.37109375,-443.84765625,-23.92578125,-121.09375
1574109828.9057648,14.16015625,-441.89453125,-676.26953125,-6.34765625,24.4140625
1574109828.9057648,71.77734375,-185.546875,-446.2890625,-15.13671875,157.71484375
1574109828.9057648,107.91015625,-176.7578125,-581.0546875,-23.92578125,-42.48046875
1574109828.9057648,-38.0859375,-858.88671875,-1000.0,-19.04296875,-113.76953125
1574109828.9057648,-93.75,-847.16796875,-901.3671875,-2.9296875,-62.98828125
1574109828.9057648,-89.84375,-796.38671875,-907.2265625,0.9765625,104.00390625
1574109828.9057648,-119.140625,-1000.0,-1000.0,-6.34765625,177.734375
1574109828.9057648,-62.01171875,-973.6328125,-977.05078125,-25.87890625,-11.23046875
1574109828.9057648,-356.4453125,-1000.0,-1000.0,-17.08984375,91.796875
1574109828.9057648,-271.97265625,-464.84375,-630.37109375,-17.08984375,318.359375
1574109828.9057648,194.82421875,306.640625,-120.1171875,-27.34375,23.92578125
1574109828.9057648,65.91796875,-313.4765625,-624.51171875,-15.13671875,-176.26953125
1574109828.9526398,-25.87890625,-626.46484375,-782.71484375,-20.5078125,-116.2109375
1574109828.9526398,128.90625,116.69921875,-201.171875,-25.390625,-95.703125
1574109828.9526398,171.38671875,274.4140625,-136.23046875,-1.46484375,-140.13671875
1574109828.9526398,27.34375,-417.96875,-668.45703125,-7.32421875,-86.9140625
1574109828.9526398,-39.55078125,-708.49609375,-856.4453125,-24.4140625,-82.51953125
1574109828.9526398,-40.0390625,-650.390625,-824.21875,-6.8359375,-28.3203125
1574109828.9526398,-41.50390625,-897.4609375,-969.23828125,-2.44140625,-7.32421875
1574109828.9526398,-260.7421875,-1000.0,-1000.0,0.9765625,-66.40625
1574109828.9526398,-399.90234375,-771.97265625,-864.74609375,-11.23046875,130.859375
1574109828.9526398,39.0625,68.359375,-258.7890625,-43.45703125,45.8984375
1574109828.9526398,163.0859375,252.9296875,-103.02734375,-9.765625,-195.80078125
1574109828.9526398,23.4375,-400.87890625,-646.97265625,0.9765625,-40.52734375
1574109828.9995148,63.4765625,-402.34375,-708.49609375,-26.3671875,-3.41796875
1574109828.9995148,175.29296875,214.35546875,-197.265625,-23.4375,-122.0703125
1574109828.9995148,87.40234375,-58.59375,-342.28515625,3.41796875,-36.1328125
1574109828.9995148,-36.1328125,-625.9765625,-826.171875,7.8125,42.48046875
1574109828.9995148,34.66796875,-461.42578125,-779.78515625,-10.25390625,-18.06640625
1574109828.9995148,-18.06640625,-721.19140625,-914.55078125,-14.16015625,9.27734375
1574109828.9995148,-67.3828125,-1000.0,-1000.0,-12.6953125,13.671875
1574109828.9995148,-369.62890625,-956.0546875,-958.49609375,5.859375,228.515625
1574109828.9995148,-386.23046875,-942.3828125,-1000.0,-18.06640625,370.60546875
1574109828.9995148,71.77734375,-368.65234375,-689.94140625,-37.59765625,24.4140625
1574109828.9995148,70.3125,-211.9140625,-481.4453125,-12.20703125,-66.89453125
1574109828.9995148,-8.30078125,-511.23046875,-670.41015625,-3.90625,-30.2734375
1574109829.0463898,105.46875,-196.77734375,-540.52734375,-16.11328125,-77.63671875
1574109829.0463898,140.625,-117.1875,-555.17578125,-33.203125,-61.5234375
1574109829.0463898,0.9765625,-512.20703125,-730.46875,-20.01953125,-62.98828125
1574109829.0463898,-46.38671875,-587.40234375,-738.28125,-0.9765625,-16.11328125
1574109829.0463898,93.75,-219.23828125,-566.89453125,-7.32421875,-38.57421875
1574109829.0463898,-34.1796875,-789.0625,-928.7109375,-7.32421875,33.203125
1574109829.0463898,-207.03125,-1000.0,-1000.0,4.8828125,113.76953125
1574109829.0463898,-121.09375,-778.80859375,-876.953125,-2.9296875,278.3203125
1574109829.0463898,54.19921875,-262.6953125,-564.94140625,-21.484375,332.51953125
1574109829.0463898,152.34375,-255.859375,-654.296875,-26.85546875,47.36328125
1574109829.0463898,-221.19140625,-829.58984375,-988.28125,4.8828125,-71.2890625
1574109829.0463898,-498.53515625,-968.75,-994.62890625,16.11328125,-80.56640625
1574109829.0932648,1.953125,-169.43359375,-471.6796875,-24.4140625,-121.09375
1574109829.0932648,127.44140625,-176.26953125,-548.33984375,-19.04296875,-153.80859375
1574109829.0932648,-20.5078125,-726.5625,-941.40625,3.41796875,-104.4921875
1574109829.0932648,52.734375,-236.328125,-472.65625,6.34765625,-101.5625
1574109829.0932648,117.1875,40.0390625,-293.9453125,8.7890625,-112.3046875
1574109829.0932648,9.765625,-649.90234375,-810.05859375,4.8828125,33.69140625
1574109829.0932648,-337.40234375,-1000.0,-1000.0,9.765625,146.484375
1574109829.0932648,-206.0546875,-409.1796875,-598.6328125,0.0,-17.08984375
1574109829.0932648,175.78125,272.94921875,-78.125,-4.8828125,-175.29296875
1574109829.0932648,50.78125,-270.01953125,-519.53125,-6.8359375,-176.26953125
1574109829.0932648,-56.640625,-711.42578125,-892.578125,-32.2265625,20.5078125
1574109829.0932648,92.28515625,-107.91015625,-428.7109375,-32.2265625,271.97265625
1574109829.1401398,166.9921875,207.51953125,-141.11328125,-4.39453125,30.2734375
1574109829.1401398,-10.25390625,-405.76171875,-586.42578125,12.6953125,-173.828125
1574109829.1401398,-151.3671875,-1000.0,-1000.0,-1.953125,-165.0390625
1574109829.1401398,27.83203125,-427.734375,-683.59375,-20.01953125,-87.890625
1574109829.1401398,136.23046875,-122.55859375,-451.171875,-6.8359375,-77.63671875
1574109829.1401398,-189.453125,-744.140625,-863.28125,20.5078125,9.27734375
1574109829.1401398,-407.2265625,-1000.0,-1000.0,9.27734375,353.515625
1574109829.1401398,-3.90625,-408.69140625,-651.85546875,-27.83203125,235.3515625
1574109829.1401398,179.6875,92.7734375,-264.16015625,-17.578125,-101.07421875
1574109829.1401398,-118.65234375,-563.96484375,-699.21875,2.44140625,-2.44140625
1574109829.1401398,-147.94921875,-724.12109375,-896.484375,-21.484375,43.9453125
1574109829.1401398,117.1875,-208.984375,-592.28515625,-37.109375,-35.64453125
1574109829.1870148,91.30859375,-213.37890625,-529.78515625,-13.671875,-115.72265625
1574109829.1870148,-21.97265625,-543.45703125,-721.6796875,-15.625,3.41796875
1574109829.1870148,24.90234375,-428.22265625,-683.59375,-27.34375,103.02734375
1574109829.1870148,104.00390625,-285.15625,-669.921875,-23.4375,-66.40625
1574109829.1870148,3.90625,-673.828125,-904.78515625,-11.23046875,-200.68359375
1574109829.1870148,-137.20703125,-971.6796875,-996.58203125,5.37109375,119.62890625
1574109829.1870148,-149.4140625,-1000.0,-1000.0,10.25390625,422.8515625
1574109829.1870148,-72.75390625,-930.17578125,-978.515625,-12.20703125,115.234375
1574109829.1870148,-0.9765625,-762.6953125,-915.52734375,-26.85546875,-128.41796875
1574109829.1870148,-374.0234375,-1000.0,-1000.0,-7.8125,-46.875
1574109829.1870148,-265.13671875,-466.30859375,-637.20703125,-22.4609375,-4.8828125
1574109829.1870148,208.49609375,266.6015625,-199.21875,-40.52734375,-96.6796875
1574109829.2338898,56.640625,-364.74609375,-669.43359375,-26.3671875,-90.33203125
1574109829.2338898,-41.50390625,-648.4375,-776.85546875,-18.5546875,-97.65625
1574109829.2338898,89.84375,-60.546875,-344.7265625,-18.06640625,-97.65625
1574109829.2338898,138.671875,-20.5078125,-414.0625,-20.5078125,-108.88671875
1574109829.2338898,-15.625,-607.91015625,-828.61328125,-16.6015625,-122.0703125
1574109829.2338898,-158.69140625,-1000.0,-1000.0,-11.23046875,-0.48828125
1574109829.2338898,-138.671875,-973.14453125,-987.3046875,-18.06640625,111.328125
1574109829.2338898,-41.50390625,-896.97265625,-952.1484375,-11.71875,36.1328125
1574109829.2338898,-249.0234375,-1000.0,-1000.0,18.06640625,-67.3828125
1574109829.2338898,-405.76171875,-796.875,-863.76953125,-10.25390625,199.70703125
1574109829.2338898,13.671875,-28.3203125,-328.125,-40.52734375,227.05078125
1574109829.2338898,20.5078125,-486.328125,-682.12890625,-6.34765625,34.1796875
1574109829.2807648,-69.82421875,-904.78515625,-1000.0,-16.11328125,52.24609375
1574109829.2807648,80.078125,-262.6953125,-584.9609375,-21.97265625,-21.484375
1574109829.2807648,162.109375,203.61328125,-167.96875,-8.30078125,-92.7734375
1574109829.2807648,115.234375,28.3203125,-291.9921875,-2.44140625,-92.7734375
1574109829.2807648,-34.66796875,-737.79296875,-898.92578125,3.41796875,-50.78125
1574109829.2807648,-98.14453125,-1000.0,-1000.0,5.859375,22.94921875
1574109829.2807648,-76.66015625,-932.6171875,-973.6328125,-3.90625,28.3203125
1574109829.2807648,-43.45703125,-896.97265625,-991.69921875,-7.8125,33.203125
1574109829.2807648,-354.98046875,-1000.0,-1000.0,6.8359375,185.546875
1574109829.2807648,-274.90234375,-586.42578125,-781.73828125,-13.18359375,185.546875
1574109829.2807648,69.82421875,-324.21875,-662.109375,-27.34375,-125.48828125
1574109829.2807648,-72.75390625,-825.1953125,-962.890625,0.0,-107.91015625
1574109829.3276398,-13.18359375,-542.96875,-721.19140625,-7.8125,-41.50390625
1574109829.3276398,167.48046875,45.41015625,-345.21484375,-21.97265625,-124.0234375
1574109829.3276398,173.828125,98.6328125,-305.17578125,-5.37109375,-158.203125
1574109829.3276398,7.8125,-403.80859375,-596.6796875,-2.9296875,-75.1953125
1574109829.3276398,-35.64453125,-632.32421875,-804.6875,-3.90625,8.7890625
1574109829.3276398,-39.55078125,-756.8359375,-899.4140625,-4.39453125,-5.859375
1574109829.3276398,-38.0859375,-989.2578125,-1000.0,-27.34375,-22.4609375
1574109829.3276398,-205.078125,-993.1640625,-1000.0,-2.9296875,-38.57421875
1574109829.3276398,-365.72265625,-757.8125,-840.8203125,10.7421875,187.5
1574109829.3276398,47.8515625,0.0,-353.515625,-32.2265625,167.96875
1574109829.3276398,188.96484375,90.8203125,-351.5625,-23.92578125,-72.265625
1574109829.3276398,58.59375,-322.75390625,-582.03125,-15.625,-42.96875
1574109829.3745148,59.08203125,-258.30078125,-458.0078125,-12.6953125,-21.97265625
1574109829.3745148,41.9921875,-443.359375,-675.29296875,-1.46484375,-3.90625
1574109829.3745148,31.73828125,-638.671875,-922.36328125,7.8125,-31.25
1574109829.3745148,20.99609375,-527.34375,-755.859375,15.13671875,-79.58984375
1574109829.3745148,59.08203125,-171.38671875,-411.62109375,8.30078125,-98.6328125
1574109829.3745148,-20.01953125,-578.61328125,-754.39453125,7.32421875,20.01953125
1574109829.3745148,-58.59375,-1000.0,-1000.0,1.46484375,70.3125
1574109829.3745148,-359.375,-1000.0,-1000.0,18.5546875,252.9296875
1574109829.3745148,-304.19921875,-512.20703125,-650.87890625,0.0,443.359375
1574109829.3745148,179.6875,324.21875,-67.87109375,-20.99609375,80.078125
1574109829.3745148,61.03515625,-312.5,-611.328125,-13.671875,-61.5234375
1574109829.3745148,-21.97265625,-675.29296875,-854.00390625,-14.6484375,35.64453125
1574109829.4213898,133.7890625,55.6640625,-270.01953125,-20.5078125,-27.34375
1574109829.4213898,168.9453125,252.44140625,-113.76953125,-20.5078125,-59.08203125
1574109829.4213898,15.13671875,-406.25,-627.44140625,-8.30078125,-35.15625
1574109829.4213898,-112.79296875,-1000.0,-1000.0,-16.6015625,-25.390625
1574109829.4213898,-60.546875,-815.4296875,-901.85546875,-22.94921875,-90.33203125
1574109829.4213898,-24.4140625,-797.8515625,-900.390625,-5.37109375,-119.140625
1574109829.4213898,-246.58203125,-1000.0,-1000.0,10.7421875,37.109375
1574109829.4213898,-408.69140625,-870.1171875,-945.80078125,0.48828125,301.26953125
1574109829.4213898,-20.5078125,-205.56640625,-500.9765625,-17.08984375,145.01953125
1574109829.4213898,159.66796875,187.5,-149.4140625,2.9296875,-140.13671875
1574109829.4213898,6.34765625,-392.08984375,-615.234375,-0.9765625,-13.671875
1574109829.4213898,38.57421875,-461.42578125,-762.6953125,-17.578125,14.16015625
1574109829.4682648,141.6015625,-52.24609375,-455.56640625,-20.5078125,-79.58984375
1574109829.4682648,81.54296875,-165.0390625,-457.51953125,1.46484375,-78.125
1574109829.4682648,-10.7421875,-498.046875,-692.3828125,21.484375,-37.109375
1574109829.4682648,41.015625,-380.37109375,-684.5703125,-16.11328125,-42.96875
1574109829.4682648,112.3046875,-202.63671875,-587.890625,-29.78515625,-99.609375
1574109829.4682648,-11.23046875,-720.703125,-869.140625,4.8828125,-35.64453125
1574109829.4682648,-375.48828125,-1000.0,-1000.0,38.57421875,270.99609375
1574109829.4682648,-379.8828125,-1000.0,-1000.0,15.13671875,423.828125
1574109829.4682648,9.765625,-656.73828125,-798.33984375,-7.32421875,-12.6953125
1574109829.4682648,41.9921875,-384.27734375,-646.97265625,9.27734375,-231.4453125
1574109829.4682648,-69.3359375,-627.44140625,-772.94921875,7.8125,-159.1796875
1574109829.4682648,60.05859375,-212.40234375,-502.9296875,-11.23046875,-115.72265625
1574109829.5151398,163.0859375,41.015625,-394.04296875,-19.53125,-143.06640625
1574109829.5151398,22.4609375,-465.33203125,-726.07421875,-10.25390625,-113.28125
1574109829.5151398,-52.734375,-638.671875,-771.484375,1.46484375,15.625
1574109829.5151398,58.59375,-160.15625,-473.14453125,-4.39453125,-27.83203125
1574109829.5151398,101.5625,-371.58203125,-723.6328125,-24.90234375,-18.5546875
1574109829.5151398,-187.01171875,-892.08984375,-993.65234375,-11.23046875,128.90625
1574109829.5151398,-396.97265625,-992.67578125,-1000.0,-1.953125,309.08203125
1574109829.5151398,-6.8359375,-254.8828125,-511.71875,-15.13671875,166.50390625
1574109829.5151398,160.64453125,-38.0859375,-438.96484375,-14.6484375,-137.20703125
1574109829.5151398,-153.3203125,-794.43359375,-993.65234375,-19.53125,-138.671875
1574109829.5151398,-161.62109375,-543.45703125,-708.984375,-18.06640625,-58.59375
1574109829.5151398,129.8828125,174.31640625,-185.546875,-12.20703125,-101.5625
1574109829.5620148,91.30859375,-126.953125,-503.41796875,-2.9296875,-93.75
1574109829.5620148,-42.48046875,-751.46484375,-992.1875,-7.32421875,-19.04296875
1574109829.5620148,-0.9765625,-454.58984375,-696.2890625,-16.6015625,-98.6328125
1574109829.5620148,117.67578125,104.4921875,-246.58203125,-16.11328125,-168.45703125
1574109829.5620148,61.5234375,-247.0703125,-565.91796875,-5.859375,-73.73046875
1574109829.5620148,-133.7890625,-918.9453125,-1000.0,-9.765625,204.58984375
1574109829.5620148,-188.4765625,-1000.0,-1000.0,-16.6015625,290.52734375
1574109829.5620148,16.6015625,-349.609375,-566.89453125,-2.44140625,-9.765625
1574109829.5620148,53.22265625,-270.5078125,-543.9453125,11.71875,-63.96484375
1574109829.5620148,-306.640625,-1000.0,-1000.0,4.39453125,120.60546875
1574109829.5620148,-164.55078125,-510.7421875,-757.32421875,-20.99609375,50.78125
1574109829.5620148,137.20703125,21.97265625,-357.91015625,2.9296875,-170.41015625
1574109829.6088898,-75.1953125,-654.78515625,-780.2734375,38.57421875,-119.140625
1574109829.6088898,-88.37890625,-750.48828125,-920.8984375,10.25390625,-71.2890625
1574109829.6088898,97.16796875,-226.07421875,-631.34765625,-19.53125,-93.26171875
1574109829.6088898,122.55859375,-81.54296875,-445.80078125,-2.9296875,-124.51171875
1574109829.6088898,-48.828125,-490.72265625,-664.0625,18.5546875,-36.1328125
1574109829.6088898,-200.1953125,-1000.0,-1000.0,3.41796875,191.89453125
1574109829.6088898,-135.7421875,-1000.0,-1000.0,-18.5546875,176.26953125
1574109829.6088898,73.73046875,-448.2421875,-638.671875,-34.66796875,-17.578125
1574109829.6088898,-138.671875,-542.48046875,-678.7109375,-11.71875,-141.11328125
1574109829.6088898,-426.7578125,-857.91015625,-929.6875,-13.671875,126.953125
1574109829.6088898,30.76171875,-70.3125,-459.9609375,-58.10546875,36.1328125
1574109829.6088898,185.546875,94.23828125,-333.49609375,-34.1796875,-189.94140625
1574109829.6557648,13.18359375,-354.00390625,-561.03515625,-7.8125,-68.359375
1574109829.6557648,50.29296875,-195.80078125,-462.890625,-4.39453125,-30.2734375
1574109829.6557648,79.1015625,-309.08203125,-670.8984375,-11.71875,-115.72265625
1574109829.6557648,-43.45703125,-963.8671875,-1000.0,-15.13671875,-199.21875
1574109829.6557648,-56.640625,-779.78515625,-856.93359375,-5.859375,-119.140625
1574109829.6557648,-65.4296875,-734.375,-858.3984375,0.9765625,85.9375
1574109829.6557648,-100.5859375,-1000.0,-1000.0,-10.25390625,155.76171875
1574109829.6557648,-52.24609375,-967.28515625,-976.07421875,-23.4375,-23.4375
1574109829.6557648,-332.03125,-1000.0,-1000.0,1.46484375,73.2421875
1574109829.6557648,-249.51171875,-414.55078125,-584.9609375,9.27734375,309.5703125
1574109829.6557648,169.921875,217.28515625,-209.47265625,-11.71875,109.375
1574109829.6557648,2.44140625,-615.72265625,-871.58203125,-6.8359375,-13.671875
1574109829.7026398,-41.015625,-674.31640625,-824.21875,7.32421875,93.75
1574109829.7026398,143.06640625,173.33984375,-158.203125,1.46484375,57.12890625
1574109829.7026398,177.24609375,250.9765625,-141.11328125,-3.41796875,-11.23046875
1574109829.7026398,22.4609375,-454.1015625,-690.4296875,-6.8359375,15.625
1574109829.7026398,-33.69140625,-667.48046875,-825.1953125,-11.23046875,16.11328125
1574109829.7026398,-38.0859375,-673.828125,-847.65625,19.53125,60.05859375
1574109829.7026398,-63.4765625,-969.7265625,-1000.0,29.296875,50.29296875
1574109829.7026398,-260.7421875,-1000.0,-1000.0,8.30078125,-73.73046875
1574109829.7026398,-395.5078125,-791.9921875,-881.34765625,-18.06640625,218.75
1574109829.7026398,12.20703125,-40.0390625,-343.75,-40.0390625,177.734375
1574109829.7026398,156.25,208.984375,-137.6953125,-11.23046875,-138.18359375
1574109829.7026398,34.66796875,-360.3515625,-617.67578125,-2.44140625,57.6171875
1574109829.7495148,67.87109375,-403.3203125,-697.75390625,-23.4375,-12.20703125
1574109829.7495148,168.9453125,110.3515625,-273.4375,-36.1328125,-154.78515625
1574109829.7495148,76.66015625,-170.41015625,-438.96484375,-13.18359375,-109.86328125
1574109829.7495148,-34.66796875,-649.90234375,-834.47265625,4.8828125,-50.78125
1574109829.7495148,32.71484375,-486.81640625,-780.2734375,-26.3671875,-15.625
1574109829.7495148,-14.6484375,-743.65234375,-929.6875,-31.25,-52.24609375
1574109829.7495148,-58.10546875,-990.72265625,-1000.0,-12.20703125,-102.5390625
1574109829.7495148,-375.0,-961.9140625,-969.7265625,-1.46484375,142.08984375
1574109829.7495148,-398.92578125,-965.33203125,-1000.0,-25.87890625,347.16796875
1574109829.7495148,83.984375,-325.1953125,-632.32421875,-42.48046875,-43.9453125
1574109829.7495148,68.359375,-221.19140625,-515.625,-20.5078125,-126.953125
1574109829.7495148,-9.765625,-511.71875,-676.7578125,-9.765625,-0.48828125
1574109829.7963898,106.4453125,-203.125,-560.546875,-26.85546875,-38.57421875
1574109829.7963898,152.34375,-76.171875,-523.92578125,-40.52734375,-144.53125
1574109829.7963898,28.80859375,-420.8984375,-644.53125,-11.71875,-167.96875
1574109829.7963898,-29.296875,-557.12890625,-694.82421875,7.32421875,-39.0625
1574109829.7963898,80.078125,-190.91796875,-505.37109375,1.953125,-40.52734375
1574109829.7963898,0.9765625,-790.52734375,-916.015625,-5.859375,90.33203125
1574109829.7963898,-258.7890625,-1000.0,-1000.0,2.9296875,137.6953125
1574109829.7963898,-408.203125,-785.15625,-864.2578125,0.9765625,248.046875
1574109829.7963898,-14.16015625,-109.86328125,-419.921875,-43.45703125,374.51171875
1574109829.7963898,168.45703125,-34.66796875,-464.35546875,-45.41015625,-30.76171875
1574109829.7963898,12.6953125,-526.3671875,-791.015625,-47.36328125,-216.30859375
1574109829.7963898,-59.08203125,-748.53515625,-880.37109375,-70.3125,-84.9609375
1574109829.8432648,75.68359375,-284.66796875,-575.68359375,-87.40234375,-112.79296875
1574109829.8432648,127.9296875,-205.078125,-587.890625,-105.95703125,-111.81640625
1574109829.8432648,10.25390625,-689.453125,-902.34375,-113.28125,-0.9765625
1574109829.8432648,42.96875,-372.0703125,-562.5,-114.74609375,-38.0859375
1574109829.8432648,87.890625,-214.35546875,-480.95703125,-116.69921875,-64.453125
1574109829.8432648,19.53125,-746.09375,-866.2109375,-126.46484375,29.296875
1574109829.8432648,-394.04296875,-1000.0,-1000.0,-131.8359375,215.33203125
1574109829.8432648,-351.07421875,-596.19140625,-718.75,-163.0859375,305.6640625
1574109829.8432648,130.37109375,55.6640625,-265.625,-171.38671875,19.53125
1574109829.8432648,50.29296875,-382.32421875,-620.60546875,-163.0859375,-121.58203125
1574109829.8432648,-29.296875,-735.83984375,-892.08984375,-187.01171875,-37.109375
1574109829.8432648,86.9140625,-262.6953125,-539.0625,-181.15234375,-11.23046875
1574109829.8901398,124.51171875,-95.703125,-390.625,-167.96875,-46.38671875
1574109829.8901398,-42.96875,-585.44921875,-713.8671875,-168.45703125,-35.64453125
1574109829.8901398,-151.85546875,-950.1953125,-1000.0,-161.62109375,11.23046875
1574109829.8901398,25.87890625,-468.26171875,-735.83984375,-153.80859375,-79.58984375
1574109829.8901398,101.07421875,-360.3515625,-615.234375,-128.41796875,-175.29296875
1574109829.8901398,-206.0546875,-842.28515625,-907.2265625,-75.1953125,-20.99609375
1574109829.8901398,-448.2421875,-1000.0,-1000.0,-62.5,415.52734375
1574109829.8901398,-103.02734375,-767.578125,-884.765625,-104.4921875,309.5703125
1574109829.8901398,132.32421875,-169.921875,-427.24609375,-81.54296875,-210.9375
1574109829.8901398,-120.1171875,-527.83203125,-649.4140625,-19.53125,-141.6015625
1574109829.8901398,-166.9921875,-741.69921875,-911.1328125,-24.90234375,-23.92578125
1574109829.8901398,102.5390625,-274.90234375,-636.23046875,-33.203125,-170.41015625
1574109829.9370148,86.42578125,-250.0,-538.0859375,6.8359375,-357.91015625
1574109829.9370148,-26.3671875,-549.31640625,-710.9375,37.59765625,-224.609375
1574109829.9370148,10.7421875,-475.09765625,-691.40625,37.59765625,-90.33203125
1574109829.9370148,104.00390625,-273.4375,-639.16015625,30.2734375,-246.58203125
1574109829.9370148,10.25390625,-628.90625,-856.4453125,39.55078125,-360.83984375
1574109829.9370148,-139.16015625,-974.12109375,-998.046875,59.08203125,-52.24609375
1574109829.9370148,-160.15625,-1000.0,-1000.0,74.21875,168.9453125
1574109829.9370148,-48.828125,-821.2890625,-930.17578125,51.7578125,-114.2578125
1574109829.9370148,44.921875,-612.3046875,-842.7734375,33.203125,-269.53125
1574109829.9370148,-360.83984375,-998.53515625,-1000.0,63.4765625,-71.2890625
1574109829.9370148,-275.87890625,-493.65234375,-636.23046875,51.7578125,-14.6484375
1574109829.9370148,189.453125,196.2890625,-232.421875,23.92578125,-181.15234375
1574109829.9838898,38.0859375,-420.8984375,-712.40234375,33.203125,-207.51953125
1574109829.9838898,-52.734375,-661.62109375,-788.57421875,43.9453125,-166.9921875
1574109829.9838898,89.84375,-68.359375,-335.9375,54.6875,-170.41015625
1574109829.9838898,139.16015625,-50.78125,-427.734375,43.9453125,-141.11328125
1574109829.9838898,-8.30078125,-606.4453125,-832.51953125,29.296875,-84.9609375
1574109829.9838898,-166.9921875,-1000.0,-1000.0,39.55078125,47.8515625
1574109829.9838898,-164.55078125,-981.93359375,-988.76953125,45.8984375,203.61328125
1574109829.9838898,-64.453125,-907.71484375,-952.1484375,35.15625,88.8671875
1574109829.9838898,-243.65234375,-1000.0,-1000.0,42.96875,-92.7734375
1574109829.9838898,-415.0390625,-807.12890625,-884.765625,39.55078125,204.58984375
1574109829.9838898,41.015625,141.6015625,-153.3203125,19.53125,225.09765625
1574109829.9838898,167.48046875,192.3828125,-151.3671875,36.62109375,-49.31640625
1574109830.0307648,-0.48828125,-606.93359375,-859.375,32.71484375,-59.5703125
1574109830.0307648,52.24609375,-437.98828125,-713.8671875,25.390625,-64.453125
1574109830.0307648,141.6015625,84.47265625,-252.44140625,43.9453125,-107.91015625
1574109830.0307648,86.9140625,-117.67578125,-422.36328125,63.4765625,-161.62109375
1574109830.0307648,-59.08203125,-797.36328125,-942.87109375,60.546875,-38.57421875
1574109830.0307648,-104.4921875,-1000.0,-1000.0,43.45703125,-21.484375
1574109830.0307648,-85.9375,-963.37890625,-979.98046875,39.0625,-96.6796875
1574109830.0307648,-34.1796875,-875.9765625,-985.83984375,41.9921875,-25.390625
1574109830.0307648,-338.37890625,-991.69921875,-1000.0,55.17578125,120.1171875
1574109830.0307648,-274.90234375,-599.12109375,-769.04296875,34.1796875,158.203125
1574109830.0307648,86.42578125,-250.0,-578.125,22.94921875,-41.50390625
1574109830.0307648,-54.19921875,-728.02734375,-873.046875,43.45703125,-62.98828125
1574109830.0776398,-9.765625,-561.5234375,-750.0,32.71484375,-50.78125
1574109830.0776398,146.484375,-75.1953125,-479.4921875,2.9296875,-154.296875
1574109830.0776398,169.43359375,46.875,-372.55859375,5.37109375,-216.30859375
1574109830.0776398,24.4140625,-373.53515625,-586.42578125,31.73828125,-176.26953125
1574109830.0776398,-31.25,-620.60546875,-796.38671875,31.73828125,-69.3359375
1574109830.0776398,-39.0625,-744.140625,-894.04296875,18.5546875,-13.18359375
1574109830.0776398,-33.203125,-991.69921875,-1000.0,12.6953125,-10.25390625
1574109830.0776398,-216.30859375,-1000.0,-1000.0,25.390625,29.78515625
1574109830.0776398,-404.78515625,-805.6640625,-880.37109375,16.11328125,293.9453125
1574109830.0776398,14.6484375,-101.5625,-451.66015625,-29.78515625,276.85546875
1574109830.0776398,156.25,-97.16796875,-531.25,-20.01953125,-3.41796875
1574109830.0776398,10.7421875,-520.5078125,-760.25390625,-5.37109375,15.13671875
1574109830.1245148,45.41015625,-264.16015625,-466.30859375,8.7890625,3.41796875
1574109830.1245148,54.6875,-367.1875,-632.8125,2.9296875,-106.93359375
1574109830.1245148,42.48046875,-580.078125,-917.48046875,-9.27734375,-102.05078125
1574109830.1245148,25.87890625,-499.51171875,-763.18359375,-9.765625,-45.41015625
1574109830.1245148,46.875,-231.4453125,-464.35546875,2.9296875,-18.06640625
1574109830.1245148,-28.3203125,-595.21484375,-763.18359375,34.66796875,68.84765625
1574109830.1245148,-54.6875,-997.55859375,-1000.0,13.18359375,141.11328125
1574109830.1245148,-357.91015625,-1000.0,-1000.0,6.8359375,166.015625
1574109830.1245148,-307.6171875,-490.234375,-629.8828125,7.32421875,203.125
1574109830.1245148,177.734375,334.47265625,-63.96484375,3.90625,-83.49609375
1574109830.1245148,56.15234375,-324.21875,-630.37109375,8.7890625,-231.4453125
1574109830.1245148,-20.5078125,-650.390625,-832.03125,0.9765625,-116.69921875
1574109830.1713898,119.140625,19.04296875,-296.875,3.90625,-39.55078125
1574109830.1713898,156.73828125,174.31640625,-201.66015625,1.953125,19.53125
1574109830.1713898,8.7890625,-415.52734375,-649.90234375,0.9765625,-30.2734375
1574109830.1713898,-108.3984375,-980.46875,-1000.0,4.39453125,-46.875
1574109830.1713898,-30.76171875,-722.65625,-908.203125,1.46484375,-168.45703125
1574109830.1713898,-21.97265625,-783.203125,-921.875,12.20703125,-120.60546875
1574109830.1713898,-247.0703125,-1000.0,-1000.0,28.3203125,16.11328125
1574109830.1713898,-423.828125,-931.15234375,-1000.0,14.6484375,242.1875
1574109830.1713898,-34.66796875,-288.57421875,-579.1015625,-15.13671875,151.85546875
1574109830.1713898,181.15234375,242.1875,-103.515625,-19.53125,-167.48046875
1574109830.1713898,26.85546875,-328.61328125,-548.828125,-7.8125,-81.0546875
1574109830.1713898,51.7578125,-462.890625,-743.1640625,-23.4375,-16.11328125
1574109830.2182648,130.859375,-157.71484375,-544.921875,-35.15625,-147.4609375
1574109830.2182648,87.890625,-176.26953125,-468.26171875,-19.04296875,-207.51953125
1574109830.2182648,11.23046875,-455.078125,-647.4609375,2.44140625,-76.66015625
1574109830.2182648,47.8515625,-411.62109375,-707.03125,-15.13671875,74.70703125
1574109830.2182648,104.00390625,-231.4453125,-623.53515625,-24.4140625,15.13671875
1574109830.2182648,-13.18359375,-742.1875,-900.390625,7.8125,-145.01953125
1574109830.2182648,-368.65234375,-1000.0,-1000.0,43.45703125,131.8359375
1574109830.2182648,-341.30859375,-979.4921875,-1000.0,19.53125,346.19140625
1574109830.2182648,108.3984375,-305.6640625,-606.93359375,-23.4375,-58.10546875
1574109830.2182648,82.03125,-237.3046875,-541.015625,-6.34765625,-187.98828125
1574109830.2182648,-78.61328125,-661.1328125,-795.41015625,24.90234375,-48.33984375
1574109830.2182648,69.3359375,-167.96875,-461.42578125,25.87890625,-55.17578125
1574109830.2651398,179.19921875,54.19921875,-379.39453125,-3.41796875,-224.12109375
1574109830.2651398,34.66796875,-462.890625,-727.5390625,-14.16015625,-120.60546875
1574109830.2651398,-49.31640625,-634.27734375,-751.953125,-9.27734375,68.84765625
1574109830.2651398,56.640625,-203.61328125,-492.67578125,-7.32421875,-17.08984375
1574109830.2651398,92.7734375,-466.796875,-785.15625,-11.23046875,-4.8828125
1574109830.2651398,-177.734375,-935.546875,-1000.0,4.8828125,57.6171875
1574109830.2651398,-387.20703125,-1000.0,-1000.0,24.4140625,311.03515625
1574109830.2651398,-30.2734375,-361.81640625,-599.12109375,7.8125,356.93359375
1574109830.2651398,135.25390625,-205.078125,-591.796875,-1.46484375,27.83203125
1574109830.2651398,-160.15625,-865.72265625,-1000.0,7.32421875,-104.98046875
1574109830.2651398,-165.0390625,-578.125,-722.65625,1.46484375,-68.359375
1574109830.2651398,136.23046875,157.2265625,-183.59375,-7.32421875,-13.18359375
1574109830.3120148,108.3984375,-112.79296875,-453.125,6.34765625,-34.66796875
1574109830.3120148,-43.9453125,-781.25,-991.2109375,-9.27734375,27.83203125
1574109830.3120148,9.27734375,-441.40625,-674.31640625,-16.6015625,-36.62109375
1574109830.3120148,151.3671875,193.359375,-142.08984375,5.37109375,-158.203125
1574109830.3120148,68.359375,-244.140625,-495.1171875,18.5546875,-164.55078125
1574109830.3120148,-143.06640625,-955.56640625,-1000.0,11.71875,125.48828125
1574109830.3120148,-184.08203125,-1000.0,-1000.0,2.9296875,330.078125
1574109830.3120148,-11.71875,-530.2734375,-687.01171875,8.7890625,-24.4140625
1574109830.3120148,65.91796875,-297.8515625,-548.828125,33.203125,-240.234375
1574109830.3120148,-278.3203125,-938.96484375,-1000.0,21.97265625,31.25
1574109830.3120148,-172.36328125,-548.33984375,-757.32421875,-25.87890625,71.2890625
1574109830.3120148,149.90234375,61.5234375,-299.8046875,-15.625,-127.44140625
1574109830.3588898,-35.15625,-555.6640625,-709.9609375,24.4140625,-70.3125
