timestamp,eeg1,eeg2,eeg3,eeg4,eeg5(aux)
1578460427.3446407,0.0,0.0,0.0,0.0,0.0
1578460427.3446407,0.0,0.0,0.0,0.0,0.0
1578460427.3446407,-31.73828125,-31.73828125,-27.83203125,-34.1796875,0.0
1578460427.3446407,69.3359375,69.3359375,58.10546875,78.61328125,0.0
1578460427.3446407,-392.578125,-391.6015625,-343.75,-346.19140625,0.0
1578460427.3446407,-1000.0,-1000.0,-912.109375,-1000.0,0.0
1578460427.3446407,-983.88671875,-991.2109375,-980.46875,-115.72265625,0.0
1578460427.3446407,-974.12109375,-985.3515625,-942.87109375,-832.03125,0.0
1578460427.3446407,-992.1875,-997.55859375,-852.05078125,-14.6484375,0.0
1578460427.3446407,-993.1640625,-987.79296875,-919.921875,-1000.0,0.0
1578460427.3446407,-990.72265625,-994.140625,-999.51171875,-351.5625,0.0
1578460427.3446407,-988.76953125,-1000.0,-951.171875,-932.6171875,0.0
1578460427.3915157,-991.2109375,-993.65234375,-879.39453125,54.19921875,0.0
1578460427.3915157,-991.69921875,-981.93359375,-924.8046875,-1000.0,1.953125
1578460427.3915157,-989.74609375,-989.2578125,-978.515625,-721.6796875,-18.5546875
1578460427.3915157,-990.234375,-1000.0,-958.0078125,791.50390625,29.296875
1578460427.3915157,-993.1640625,-994.62890625,-954.1015625,303.22265625,-196.2890625
1578460427.3915157,-990.72265625,-971.19140625,-838.37890625,-1000.0,-623.046875
1578460427.3915157,-990.234375,-970.21484375,-839.84375,-816.89453125,-1000.0
1578460427.3915157,-989.2578125,-995.1171875,-767.578125,734.375,-491.69921875
1578460427.3915157,-994.62890625,-987.3046875,-704.58984375,445.3125,-138.18359375
1578460427.3915157,-995.1171875,-958.984375,-985.83984375,-994.140625,-994.140625
1578460427.3915157,-988.76953125,-963.8671875,-1000.0,-1000.0,-1000.0
1578460427.3915157,-989.74609375,-979.00390625,-977.5390625,45.8984375,-398.4375
1578460427.4383907,-992.67578125,-974.12109375,-998.53515625,812.5,-212.890625
1578460427.4383907,-990.72265625,-955.56640625,-1000.0,-625.0,-1000.0
1578460427.4383907,-986.81640625,-951.171875,-991.2109375,-1000.0,-1000.0
1578460427.4383907,-989.2578125,-974.12109375,-959.9609375,-140.13671875,-388.671875
1578460427.4383907,-990.72265625,-981.93359375,-997.0703125,-828.61328125,-390.625
1578460427.4383907,-987.79296875,-963.8671875,-970.21484375,187.5,-357.421875
1578460427.4383907,-987.3046875,-958.984375,-860.83984375,-1000.0,-145.5078125
1578460427.4383907,-990.234375,-972.16796875,-682.12890625,-69.3359375,444.3359375
1578460427.4383907,-997.55859375,-977.05078125,-833.49609375,-776.3671875,340.33203125
1578460427.4383907,-991.2109375,-960.9375,-1000.0,333.0078125,-1000.0
1578460427.4383907,-987.79296875,-942.87109375,-909.1796875,-956.54296875,-952.1484375
1578460427.4383907,-991.2109375,-947.265625,-916.015625,-1000.0,-720.21484375
1578460427.4852657,-989.74609375,-963.8671875,-1000.0,126.953125,-935.05859375
1578460427.4852657,-987.79296875,-962.890625,-1000.0,648.4375,-1000.0
1578460427.4852657,-988.28125,-954.1015625,-951.66015625,-793.45703125,-847.16796875
1578460427.4852657,-991.69921875,-960.9375,-950.68359375,-1000.0,-588.8671875
1578460427.4852657,-992.1875,-982.421875,-992.1875,-215.8203125,-847.16796875
1578460427.4852657,-991.2109375,-999.51171875,-1000.0,-909.66796875,-572.265625
1578460427.4852657,-988.76953125,-992.1875,-796.875,520.01953125,-96.19140625
1578460427.4852657,-991.69921875,-982.91015625,-644.04296875,-885.25390625,575.1953125
1578460427.4852657,-994.140625,-986.81640625,-973.6328125,-715.33203125,-251.953125
1578460427.4852657,-989.2578125,-999.0234375,-1000.0,894.04296875,-1000.0
1578460427.4852657,-989.2578125,-988.76953125,-988.28125,312.01171875,-624.51171875
1578460427.4852657,-990.72265625,-968.75,-957.51953125,-1000.0,-758.30078125
1578460427.5321407,-992.1875,-980.95703125,-948.2421875,-988.28125,-1000.0
1578460427.5321407,-990.234375,-1000.0,-1000.0,455.078125,-1000.0
1578460427.5321407,-989.74609375,-986.81640625,-996.58203125,439.94140625,-722.16796875
1578460427.5321407,-991.69921875,-961.9140625,-993.65234375,-1000.0,-797.8515625
1578460427.5321407,-991.69921875,-978.02734375,-1000.0,-1000.0,-999.0234375
1578460427.5321407,-989.74609375,-999.0234375,-956.54296875,361.81640625,-687.98828125
1578460427.5321407,-991.69921875,-998.046875,-908.69140625,930.17578125,433.59375
1578460427.5321407,-994.140625,-979.98046875,-970.703125,-524.90234375,292.48046875
1578460427.5321407,-992.67578125,-971.19140625,-1000.0,-1000.0,-1000.0
1578460427.5321407,-986.81640625,-987.3046875,-972.65625,-174.31640625,-963.8671875
1578460427.5321407,-981.93359375,-1000.0,-730.46875,-843.75,-846.6796875
1578460427.5321407,-990.234375,-973.6328125,-830.078125,97.65625,-886.71875
1578460427.5790157,-991.69921875,-958.49609375,-1000.0,-1000.0,-929.6875
1578460427.5790157,-988.76953125,-980.95703125,-962.890625,-314.453125,-908.69140625
1578460427.5790157,-989.2578125,-992.1875,-969.23828125,-836.42578125,-713.8671875
1578460427.5790157,-990.234375,-983.88671875,-1000.0,234.375,-938.4765625
1578460427.5790157,-991.69921875,-971.6796875,-1000.0,-1000.0,-1000.0
1578460427.5790157,-989.74609375,-984.86328125,-872.55859375,-304.6875,-345.703125
1578460427.5790157,-992.1875,-1000.0,-843.26171875,-817.87109375,87.890625
1578460427.5790157,-992.67578125,-984.375,-1000.0,326.66015625,-769.04296875
1578460427.5790157,-989.2578125,-967.7734375,-1000.0,-1000.0,-1000.0
1578460427.5790157,-990.234375,-982.91015625,-857.91015625,-379.39453125,-553.22265625
1578460427.5790157,-993.1640625,-995.1171875,-847.16796875,-980.46875,712.890625
1578460427.5790157,-992.1875,-990.234375,-1000.0,827.63671875,-222.16796875
1578460427.6258907,-990.234375,-981.4453125,-994.140625,-437.01171875,-1000.0
1578460427.6258907,-990.72265625,-988.28125,-973.6328125,-1000.0,-607.91015625
1578460427.6258907,-991.69921875,-1000.0,-987.3046875,-323.2421875,-389.6484375
1578460427.6258907,-990.72265625,-997.55859375,-1000.0,933.59375,-783.69140625
1578460427.6258907,-988.28125,-990.72265625,-979.4921875,-130.37109375,-1000.0
1578460427.6258907,-986.328125,-994.140625,-838.37890625,-1000.0,-134.765625
1578460427.6258907,-989.74609375,-997.0703125,-870.60546875,-417.48046875,306.15234375
1578460427.6258907,-992.1875,-1000.0,-1000.0,-928.7109375,-784.66796875
1578460427.6258907,-986.328125,-996.58203125,-961.9140625,366.2109375,-1000.0
1578460427.6258907,-988.28125,-987.79296875,-738.28125,-945.3125,-157.71484375
1578460427.6258907,-996.58203125,-985.3515625,-879.39453125,-1000.0,-175.78125
1578460427.6258907,-991.2109375,-996.09375,-1000.0,64.94140625,-1000.0
1578460427.6727657,-986.81640625,-992.67578125,-974.12109375,930.6640625,-945.3125
1578460427.6727657,-988.28125,-979.98046875,-984.375,-480.46875,-847.65625
1578460427.6727657,-991.2109375,-986.328125,-1000.0,-1000.0,-928.22265625
1578460427.6727657,-991.2109375,-997.55859375,-1000.0,-204.58984375,-1000.0
1578460427.6727657,-989.74609375,-1000.0,-994.62890625,-898.92578125,-746.58203125
1578460427.6727657,-988.28125,-994.62890625,-925.29296875,42.48046875,23.92578125
1578460427.6727657,-991.2109375,-985.83984375,-872.55859375,-1000.0,-253.90625
1578460427.6727657,-992.1875,-990.234375,-1000.0,-426.7578125,-615.234375
1578460427.6727657,-986.81640625,-1000.0,-866.2109375,-918.45703125,-240.72265625
1578460427.6727657,-992.1875,-993.1640625,-742.1875,257.8125,218.75
1578460427.6727657,-994.140625,-981.4453125,-993.65234375,-1000.0,-751.46484375
1578460427.6727657,-989.2578125,-990.72265625,-1000.0,-753.41796875,-1000.0
1578460427.7196407,-990.234375,-1000.0,-989.74609375,821.77734375,-641.11328125
1578460427.7196407,-989.2578125,-997.0703125,-1000.0,320.80078125,-699.21875
1578460427.7196407,-988.28125,-986.81640625,-1000.0,-1000.0,-1000.0
1578460427.7196407,-988.76953125,-988.28125,-997.55859375,-921.38671875,-1000.0
1578460427.7196407,-989.2578125,-996.09375,-990.234375,448.73046875,-518.5546875
1578460427.7196407,-990.72265625,-1000.0,-975.09765625,791.9921875,-106.4453125
1578460427.7196407,-989.2578125,-995.60546875,-928.7109375,-678.22265625,-581.54296875
1578460427.7196407,-987.3046875,-993.65234375,-895.01953125,-1000.0,-1000.0
1578460427.7196407,-988.76953125,-1000.0,-755.859375,499.0234375,41.9921875
1578460427.7196407,-995.1171875,-988.76953125,-874.51171875,887.6953125,311.03515625
1578460427.7196407,-990.72265625,-962.40234375,-1000.0,-558.59375,-1000.0
1578460427.7196407,-989.2578125,-962.890625,-931.15234375,-1000.0,-961.9140625
1578460427.7665157,-989.74609375,-973.6328125,-942.87109375,-684.08203125,-725.5859375
1578460427.7665157,-990.234375,-972.65625,-1000.0,691.89453125,-941.40625
1578460427.7665157,-990.72265625,-966.796875,-1000.0,176.26953125,-1000.0
1578460427.7665157,-989.74609375,-958.49609375,-951.171875,-1000.0,-892.08984375
1578460427.7665157,-992.67578125,-959.9609375,-958.0078125,-846.19140625,-587.40234375
1578460427.7665157,-989.74609375,-973.6328125,-995.1171875,643.5546875,-347.65625
1578460427.7665157,-988.28125,-965.8203125,-1000.0,791.9921875,-557.12890625
1578460427.7665157,-988.76953125,-952.1484375,-788.0859375,-676.7578125,-563.4765625
1578460427.7665157,-993.65234375,-955.078125,-671.38671875,-1000.0,421.38671875
1578460427.7665157,-996.09375,-960.44921875,-999.0234375,-45.8984375,-356.93359375
1578460427.7665157,-990.234375,-960.44921875,-1000.0,937.5,-1000.0
1578460427.7665157,-989.74609375,-946.2890625,-981.93359375,-312.01171875,-624.0234375
1578460427.8133907,-991.2109375,-932.6171875,-1000.0,-1000.0,-729.98046875
1578460427.8133907,-990.72265625,-952.1484375,-1000.0,-200.1953125,-1000.0
1578460427.8133907,-991.2109375,-970.703125,-999.51171875,-813.4765625,-1000.0
1578460427.8133907,-993.65234375,-955.078125,-995.60546875,213.8671875,-710.44921875
1578460427.8133907,-991.69921875,-950.68359375,-996.58203125,-1000.0,-812.5
1578460427.8133907,-990.72265625,-969.7265625,-989.2578125,-233.3984375,-683.10546875
1578460427.8133907,-988.76953125,-986.81640625,-988.28125,-872.0703125,-532.2265625
1578460427.8133907,-987.79296875,-984.375,-766.11328125,778.3203125,265.625
1578460427.8133907,-995.1171875,-966.796875,-813.4765625,-691.40625,270.01953125
1578460427.8133907,-993.1640625,-963.8671875,-1000.0,-1000.0,-1000.0
1578460427.8133907,-987.3046875,-980.46875,-986.81640625,539.55078125,-990.234375
1578460427.8133907,-986.328125,-981.93359375,-991.69921875,608.88671875,-864.74609375
1578460427.8602657,-989.74609375,-972.16796875,-1000.0,-899.4140625,-1000.0
1578460427.8602657,-989.74609375,-979.4921875,-1000.0,-1000.0,-896.484375
1578460427.8602657,-988.76953125,-996.09375,-991.2109375,125.9765625,-571.2890625
1578460427.8602657,-990.72265625,-998.046875,-1000.0,-897.94921875,-667.96875
1578460427.8602657,-989.74609375,-987.79296875,-968.75,-201.66015625,-962.890625
1578460427.8602657,-988.76953125,-991.69921875,-920.8984375,-1000.0,-700.1953125
1578460427.8602657,-987.3046875,-999.51171875,-770.5078125,-62.98828125,-111.328125
1578460427.8602657,-990.72265625,-1000.0,-750.9765625,-842.7734375,569.82421875
1578460427.8602657,-995.60546875,-990.72265625,-1000.0,18.06640625,-344.23828125
1578460427.8602657,-991.69921875,-978.02734375,-1000.0,-1000.0,-1000.0
1578460427.8602657,-988.76953125,-988.28125,-988.28125,-423.828125,-562.5
1578460427.8602657,-988.28125,-997.0703125,-997.55859375,-933.59375,-508.30078125
1578460427.9071407,-989.74609375,-989.74609375,-1000.0,299.8046875,-1000.0
1578460427.9071407,-988.28125,-985.3515625,-981.93359375,-1000.0,-1000.0
1578460427.9071407,-990.234375,-995.1171875,-947.75390625,-994.62890625,-614.74609375
1578460427.9071407,-992.67578125,-1000.0,-984.86328125,377.9296875,-705.078125
1578460427.9071407,-992.1875,-997.55859375,-1000.0,771.97265625,-916.50390625
1578460427.9071407,-986.81640625,-987.79296875,-947.265625,-846.19140625,-666.015625
1578460427.9071407,-985.83984375,-996.09375,-668.9453125,-467.7734375,277.34375
1578460427.9071407,-994.62890625,-1000.0,-787.109375,845.21484375,305.6640625
1578460427.9071407,-993.65234375,-991.69921875,-1000.0,896.97265625,-1000.0
1578460427.9071407,-988.28125,-979.00390625,-941.89453125,-302.734375,-1000.0
1578460427.9071407,-987.79296875,-973.14453125,-898.92578125,-1000.0,-898.4375
1578460427.9071407,-993.65234375,-982.91015625,-1000.0,-386.23046875,-976.5625
1578460427.9540157,-994.140625,-992.67578125,-1000.0,-953.125,-1000.0
1578460427.9540157,-988.28125,-985.83984375,-953.61328125,154.296875,-916.50390625
1578460427.9540157,-988.76953125,-974.609375,-945.80078125,-1000.0,-763.18359375
1578460427.9540157,-990.72265625,-978.515625,-995.60546875,-821.2890625,-937.98828125
1578460427.9540157,-990.72265625,-997.55859375,-1000.0,542.48046875,-1000.0
1578460427.9540157,-985.3515625,-994.62890625,-877.9296875,-952.1484375,-590.8203125
1578460427.9540157,-989.74609375,-979.98046875,-737.3046875,-359.375,419.921875
1578460427.9540157,-995.1171875,-981.93359375,-932.12890625,-1000.0,-89.84375
1578460427.9540157,-989.74609375,-997.0703125,-1000.0,36.1328125,-1000.0
1578460427.9540157,-988.76953125,-994.62890625,-831.0546875,-926.7578125,-670.41015625
1578460427.9540157,-992.67578125,-977.5390625,-770.5078125,-222.16796875,-438.4765625
1578460427.9540157,-992.67578125,-979.4921875,-965.33203125,-1000.0,-1000.0
1578460428.0008907,-990.72265625,-998.046875,-1000.0,-215.33203125,-1000.0
1578460428.0008907,-991.69921875,-998.53515625,-996.09375,-979.98046875,-672.8515625
1578460428.0008907,-991.69921875,-984.375,-996.09375,-148.92578125,-701.66015625
1578460428.0008907,-991.2109375,-979.98046875,-1000.0,-1000.0,-1000.0
1578460428.0008907,-988.76953125,-992.67578125,-994.62890625,-354.4921875,-1000.0
1578460428.0008907,-986.328125,-1000.0,-942.87109375,-881.8359375,42.96875
1578460428.0008907,-991.2109375,-997.55859375,-918.9453125,363.76953125,397.4609375
1578460428.0008907,-992.1875,-987.79296875,-975.09765625,-1000.0,-935.546875
1578460428.0008907,-987.79296875,-993.1640625,-964.84375,-667.96875,-1000.0
1578460428.0008907,-989.74609375,-1000.0,-915.52734375,961.42578125,32.71484375
1578460428.0008907,-992.1875,-987.79296875,-985.3515625,425.78125,2.44140625
1578460428.0008907,-990.72265625,-972.65625,-1000.0,-1000.0,-1000.0
1578460428.0477657,-986.81640625,-985.83984375,-893.06640625,-626.46484375,-909.1796875
1578460428.0477657,-988.76953125,-1000.0,-772.94921875,979.00390625,-742.67578125
1578460428.0477657,-992.67578125,-989.2578125,-980.46875,660.64453125,-920.41015625
1578460428.0477657,-989.2578125,-973.14453125,-1000.0,-754.39453125,-1000.0
1578460428.0477657,-988.76953125,-977.05078125,-919.43359375,-1000.0,-764.16015625
1578460428.0477657,-990.234375,-996.58203125,-907.2265625,-109.86328125,190.4296875
1578460428.0477657,-992.1875,-995.60546875,-985.3515625,-869.62890625,-92.28515625
1578460428.0477657,-992.1875,-969.7265625,-1000.0,-116.69921875,-1000.0
1578460428.0477657,-986.81640625,-969.7265625,-817.3828125,-1000.0,-605.95703125
1578460428.0477657,-991.69921875,-982.421875,-707.51953125,-154.78515625,-136.71875
1578460428.0477657,-997.0703125,-978.515625,-1000.0,939.453125,-920.8984375
1578460428.0477657,-989.74609375,-971.19140625,-1000.0,109.86328125,-1000.0
1578460428.0946407,-989.74609375,-958.0078125,-977.05078125,-1000.0,-242.67578125
1578460428.0946407,-991.2109375,-964.35546875,-996.58203125,-1000.0,363.76953125
1578460428.0946407,-991.2109375,-979.00390625,-1000.0,172.36328125,-911.62109375
1578460428.0946407,-988.28125,-975.5859375,-996.58203125,916.50390625,-1000.0
1578460428.0946407,-989.2578125,-959.9609375,-966.796875,-495.60546875,-502.9296875
1578460428.0946407,-992.1875,-960.9375,-944.82421875,-1000.0,-199.70703125
1578460428.0946407,-989.2578125,-976.5625,-985.3515625,143.5546875,-388.18359375
1578460428.0946407,-987.3046875,-973.14453125,-1000.0,-805.6640625,-983.88671875
1578460428.0946407,-986.81640625,-965.33203125,-739.2578125,426.26953125,-118.1640625
1578460428.0946407,-993.65234375,-962.890625,-813.96484375,-1000.0,341.30859375
1578460428.0946407,-993.65234375,-975.5859375,-1000.0,-560.05859375,-1000.0
1578460428.0946407,-989.74609375,-985.3515625,-990.234375,999.0234375,-1000.0
1578460428.1415157,-989.2578125,-970.21484375,-999.51171875,69.82421875,-882.8125
1578460428.1415157,-989.2578125,-958.984375,-1000.0,-1000.0,-960.9375
1578460428.1415157,-989.2578125,-964.35546875,-1000.0,-904.296875,-1000.0
1578460428.1415157,-988.28125,-979.98046875,-996.58203125,546.38671875,-731.93359375
1578460428.1415157,-989.2578125,-981.93359375,-1000.0,343.26171875,-500.48828125
1578460428.1415157,-988.28125,-973.14453125,-927.24609375,-1000.0,-750.48828125
1578460428.1415157,-989.74609375,-980.46875,-929.6875,-916.015625,-612.79296875
1578460428.1415157,-985.83984375,-997.0703125,-819.3359375,604.00390625,-276.3671875
1578460428.1415157,-990.234375,-993.1640625,-744.62890625,489.2578125,497.0703125
1578460428.1415157,-994.62890625,-974.12109375,-994.62890625,-951.66015625,-415.52734375
1578460428.1415157,-989.74609375,-978.02734375,-1000.0,-1000.0,-1000.0
1578460428.1415157,-992.67578125,-992.1875,-988.76953125,-90.33203125,-659.1796875
1578460428.1883907,-992.67578125,-1000.0,-999.0234375,842.7734375,-674.31640625
1578460428.1883907,-989.74609375,-991.69921875,-1000.0,-539.0625,-1000.0
1578460428.1883907,-988.76953125,-988.28125,-990.72265625,-1000.0,-1000.0
1578460428.1883907,-990.234375,-998.53515625,-956.54296875,-301.7578125,-635.7421875
1578460428.1883907,-990.234375,-1000.0,-994.62890625,-942.87109375,-697.75390625
1578460428.1883907,-988.28125,-995.60546875,-979.4921875,248.046875,-654.296875
1578460428.1883907,-988.76953125,-991.2109375,-866.2109375,-1000.0,-681.15234375
1578460428.1883907,-991.2109375,-998.53515625,-659.1796875,-111.81640625,167.96875
1578460428.1883907,-995.60546875,-1000.0,-814.94140625,-773.92578125,319.3359375
1578460428.1883907,-991.69921875,-997.55859375,-1000.0,293.45703125,-1000.0
1578460428.1883907,-989.2578125,-985.83984375,-925.78125,-953.61328125,-1000.0
1578460428.1883907,-991.2109375,-984.86328125,-925.29296875,-1000.0,-884.765625
1578460428.2352657,-992.1875,-997.55859375,-1000.0,-83.49609375,-967.28515625
1578460428.2352657,-989.2578125,-995.60546875,-1000.0,493.1640625,-1000.0
1578460428.2352657,-987.3046875,-979.98046875,-952.63671875,-847.65625,-907.2265625
1578460428.2352657,-991.2109375,-970.21484375,-948.73046875,-1000.0,-713.37890625
1578460428.2352657,-990.72265625,-980.95703125,-992.67578125,-388.671875,-881.34765625
1578460428.2352657,-988.28125,-984.375,-1000.0,-963.8671875,-712.40234375
1578460428.2352657,-987.79296875,-969.23828125,-796.38671875,390.625,-349.12109375
1578460428.2352657,-992.67578125,-963.37890625,-645.01953125,-1000.0,517.08984375
1578460428.2352657,-995.60546875,-970.703125,-972.65625,-891.11328125,-179.19921875
1578460428.2352657,-990.234375,-981.4453125,-1000.0,619.62890625,-1000.0
1578460428.2352657,-991.69921875,-976.5625,-990.72265625,315.4296875,-708.0078125
1578460428.2352657,-993.65234375,-964.35546875,-992.1875,-1000.0,-779.296875
1578460428.2821407,-992.1875,-966.796875,-981.4453125,-1000.0,-1000.0
1578460428.2821407,-989.74609375,-983.3984375,-1000.0,293.45703125,-1000.0
1578460428.2821407,-988.76953125,-976.07421875,-1000.0,450.1953125,-750.0
1578460428.2821407,-990.234375,-959.47265625,-994.62890625,-1000.0,-792.96875
1578460428.2821407,-990.72265625,-959.9609375,-1000.0,-1000.0,-1000.0
1578460428.2821407,-989.74609375,-979.98046875,-1000.0,265.625,-699.21875
1578460428.2821407,-991.69921875,-990.234375,-843.26171875,928.7109375,482.91015625
1578460428.2821407,-995.60546875,-968.26171875,-892.578125,-499.0234375,296.875
1578460428.2821407,-990.234375,-950.68359375,-1000.0,-1000.0,-1000.0
1578460428.2821407,-986.81640625,-968.75,-983.88671875,-210.44921875,-976.07421875
1578460428.2821407,-990.234375,-982.421875,-985.3515625,-960.44921875,-858.3984375
1578460428.2821407,-992.1875,-962.890625,-1000.0,-109.375,-912.109375
1578460428.3290157,-988.76953125,-956.0546875,-1000.0,-1000.0,-963.8671875
1578460428.3290157,-988.28125,-974.12109375,-979.00390625,-331.54296875,-921.38671875
1578460428.3290157,-988.76953125,-990.234375,-977.05078125,-861.328125,-742.1875
1578460428.3290157,-991.2109375,-976.5625,-998.046875,246.58203125,-930.17578125
1578460428.3290157,-991.2109375,-959.47265625,-1000.0,-1000.0,-1000.0
1578460428.3290157,-988.28125,-980.95703125,-864.2578125,-341.30859375,-457.03125
1578460428.3290157,-992.67578125,-1000.0,-819.82421875,-837.40234375,386.23046875
1578460428.3290157,-996.58203125,-987.3046875,-993.65234375,402.34375,-509.27734375
1578460428.3290157,-991.69921875,-967.7734375,-1000.0,-1000.0,-1000.0
1578460428.3290157,-988.28125,-977.5390625,-840.33203125,-548.828125,-554.6875
1578460428.3290157,-990.72265625,-993.65234375,-823.2421875,821.77734375,-340.8203125
1578460428.3290157,-992.1875,-993.1640625,-1000.0,775.87890625,-1000.0
1578460428.3758907,-989.2578125,-977.05078125,-995.60546875,-521.484375,-1000.0
1578460428.3758907,-989.74609375,-974.12109375,-971.6796875,-1000.0,-569.3359375
1578460428.3758907,-991.69921875,-993.65234375,-987.3046875,-529.296875,-203.125
1578460428.3758907,-991.69921875,-1000.0,-1000.0,835.44921875,-718.75
1578460428.3758907,-989.74609375,-987.79296875,-989.2578125,25.390625,-1000.0
1578460428.3758907,-990.234375,-984.375,-866.69921875,-1000.0,-94.7265625
1578460428.3758907,-990.72265625,-992.67578125,-864.2578125,-611.81640625,394.04296875
1578460428.3758907,-989.2578125,-1000.0,-982.421875,908.69140625,-731.4453125
1578460428.3758907,-986.328125,-995.1171875,-971.19140625,365.234375,-1000.0
1578460428.3758907,-988.28125,-983.3984375,-683.59375,-1000.0,-113.28125
1578460428.3758907,-994.140625,-986.328125,-798.33984375,-1000.0,-117.1875
1578460428.3758907,-990.234375,-994.62890625,-1000.0,195.3125,-1000.0
1578460428.4227657,-987.79296875,-989.74609375,-976.07421875,895.01953125,-940.91796875
1578460428.4227657,-989.74609375,-971.6796875,-984.375,-491.69921875,-834.47265625
1578460428.4227657,-991.2109375,-965.8203125,-1000.0,-1000.0,-943.84765625
1578460428.4227657,-991.2109375,-982.91015625,-1000.0,-347.16796875,-1000.0
1578460428.4227657,-988.28125,-993.65234375,-996.09375,992.67578125,-815.91796875
1578460428.4227657,-989.2578125,-982.421875,-934.5703125,-6.8359375,-230.95703125
1578460428.4227657,-993.1640625,-976.5625,-884.765625,-1000.0,-326.66015625
1578460428.4227657,-992.1875,-983.88671875,-1000.0,-610.3515625,-491.2109375
1578460428.4227657,-988.76953125,-997.55859375,-883.30078125,916.015625,-239.74609375
1578460428.4227657,-992.1875,-994.140625,-774.4140625,291.015625,423.828125
1578460428.4227657,-996.09375,-971.6796875,-998.53515625,-1000.0,-443.84765625
1578460428.4227657,-990.72265625,-970.703125,-1000.0,-865.234375,-1000.0
1578460428.4696407,-991.2109375,-987.79296875,-992.1875,674.31640625,-655.76171875
1578460428.4696407,-993.1640625,-975.09765625,-1000.0,300.78125,-707.51953125
1578460428.4696407,-989.2578125,-956.0546875,-1000.0,-1000.0,-1000.0
1578460428.4696407,-988.28125,-964.35546875,-998.046875,-1000.0,-1000.0
1578460428.4696407,-989.74609375,-981.93359375,-992.1875,297.36328125,-549.8046875
1578460428.4696407,-991.2109375,-987.3046875,-986.328125,863.76953125,-179.6875
1578460428.4696407,-992.1875,-975.5859375,-939.94140625,-591.30859375,-619.62890625
1578460428.4696407,-989.2578125,-968.26171875,-900.87890625,-1000.0,-1000.0
1578460428.4696407,-988.28125,-985.3515625,-755.859375,401.85546875,21.484375
1578460428.4696407,-995.1171875,-985.3515625,-866.69921875,899.4140625,320.80078125
1578460428.4696407,-990.234375,-967.7734375,-1000.0,-567.87109375,-1000.0
1578460428.4696407,-988.28125,-976.07421875,-942.3828125,-1000.0,-962.890625
1578460428.5165157,-992.1875,-992.1875,-949.21875,-781.25,-742.1875
1578460428.5165157,-992.1875,-999.0234375,-1000.0,606.93359375,-950.68359375
1578460428.5165157,-988.28125,-989.2578125,-1000.0,177.734375,-1000.0
1578460428.5165157,-987.3046875,-976.5625,-955.078125,-1000.0,-916.9921875
1578460428.5165157,-990.234375,-978.02734375,-958.0078125,-992.1875,-611.81640625
1578460428.5165157,-990.234375,-992.1875,-994.140625,381.8359375,-342.28515625
1578460428.5165157,-991.2109375,-981.4453125,-1000.0,708.984375,-569.3359375
1578460428.5165157,-985.83984375,-973.14453125,-773.92578125,-725.5859375,-651.85546875
1578460428.5165157,-990.72265625,-972.16796875,-652.34375,-1000.0,392.08984375
1578460428.5165157,-997.55859375,-976.07421875,-987.79296875,-229.98046875,-305.17578125
1578460428.5165157,-988.28125,-986.328125,-1000.0,669.43359375,-1000.0
1578460428.5165157,-988.28125,-967.7734375,-977.5390625,-537.59765625,-678.7109375
1578460428.5633907,-992.67578125,-958.0078125,-997.55859375,-1000.0,-752.9296875
1578460428.5633907,-991.2109375,-982.91015625,-1000.0,-276.85546875,-1000.0
1578460428.5633907,-990.72265625,-994.62890625,-999.0234375,-873.046875,-1000.0
1578460428.5633907,-992.1875,-979.4921875,-995.1171875,208.49609375,-710.44921875
1578460428.5633907,-991.2109375,-967.7734375,-997.0703125,-1000.0,-813.4765625
1578460428.5633907,-989.2578125,-981.93359375,-982.91015625,-464.35546875,-733.88671875
1578460428.5633907,-990.72265625,-999.51171875,-994.140625,-987.79296875,-551.7578125
1578460428.5633907,-989.74609375,-996.09375,-770.5078125,784.1796875,243.65234375
1578460428.5633907,-993.65234375,-975.09765625,-805.6640625,-655.2734375,270.01953125
1578460428.5633907,-992.67578125,-974.12109375,-1000.0,-1000.0,-1000.0
1578460428.5633907,-991.2109375,-985.83984375,-989.74609375,150.87890625,-997.55859375
1578460428.5633907,-992.1875,-982.421875,-994.62890625,397.94921875,-872.0703125
1578460428.6102657,-991.2109375,-970.703125,-1000.0,-986.81640625,-1000.0
1578460428.6102657,-990.72265625,-964.35546875,-1000.0,-1000.0,-906.73828125
1578460428.6102657,-988.76953125,-984.86328125,-993.65234375,-60.546875,-604.4921875
1578460428.6102657,-990.72265625,-990.72265625,-1000.0,859.375,-684.08203125
1578460428.6102657,-990.72265625,-980.95703125,-969.7265625,-492.1875,-963.37890625
1578460428.6102657,-988.76953125,-984.375,-946.2890625,-1000.0,-730.46875
1578460428.6102657,-987.79296875,-993.1640625,-792.48046875,-146.484375,-265.625
1578460428.6102657,-991.69921875,-993.65234375,-756.34765625,-998.53515625,524.90234375
1578460428.6102657,-993.65234375,-978.02734375,-1000.0,-275.87890625,-273.92578125
1578460428.6102657,-989.2578125,-965.33203125,-1000.0,-1000.0,-1000.0
1578460428.6102657,-989.74609375,-977.05078125,-990.72265625,-843.75,-573.73046875
1578460428.6102657,-988.76953125,-990.234375,-1000.0,455.56640625,-505.859375
1578460428.6571407,-988.28125,-978.02734375,-1000.0,197.75390625,-1000.0
1578460428.6571407,-986.81640625,-966.30859375,-994.62890625,-1000.0,-1000.0
1578460428.6571407,-986.81640625,-973.14453125,-973.6328125,-1000.0,-624.0234375
1578460428.6571407,-990.234375,-983.88671875,-986.81640625,-104.4921875,-669.921875
1578460428.6571407,-989.74609375,-986.328125,-1000.0,560.546875,-852.5390625
1578460428.6571407,-986.81640625,-980.46875,-965.8203125,-780.2734375,-727.5390625
1578460428.6571407,-989.2578125,-982.421875,-702.1484375,-1000.0,233.3984375
1578460428.6571407,-994.62890625,-987.3046875,-801.26953125,160.64453125,335.9375
1578460428.6571407,-992.1875,-978.515625,-1000.0,810.546875,-1000.0
1578460428.6571407,-985.83984375,-971.19140625,-951.171875,-540.52734375,-1000.0
1578460428.6571407,-989.2578125,-976.07421875,-899.90234375,-1000.0,-911.1328125
1578460428.6571407,-994.62890625,-973.14453125,-993.65234375,-829.58984375,-979.98046875
1578460428.7040157,-990.234375,-981.4453125,-1000.0,541.015625,-1000.0
1578460428.7040157,-986.81640625,-989.74609375,-946.77734375,230.95703125,-949.21875
1578460428.7040157,-988.28125,-984.86328125,-929.6875,-1000.0,-801.26953125
1578460428.7040157,-991.2109375,-992.1875,-1000.0,-977.5390625,-950.1953125
1578460428.7040157,-992.1875,-1000.0,-1000.0,377.9296875,-1000.0
1578460428.7040157,-987.79296875,-1000.0,-934.08203125,887.6953125,-521.484375
1578460428.7040157,-989.2578125,-989.2578125,-850.09765625,-571.2890625,392.08984375
1578460428.7040157,-995.1171875,-969.7265625,-942.87109375,-1000.0,-111.328125
1578460428.7040157,-992.1875,-978.515625,-1000.0,-155.76171875,-1000.0
1578460428.7040157,-985.83984375,-999.51171875,-843.75,-831.0546875,-641.6015625
1578460428.7040157,-991.69921875,-987.79296875,-709.47265625,214.84375,-270.5078125
1578460428.7040157,-995.1171875,-971.6796875,-979.4921875,-1000.0,-983.3984375
1578460428.7508907,-988.28125,-988.28125,-1000.0,-348.14453125,-1000.0
1578460428.7508907,-990.234375,-1000.0,-990.234375,986.81640625,-502.44140625
1578460428.7508907,-991.69921875,-990.234375,-1000.0,-160.64453125,-426.7578125
1578460428.7508907,-990.234375,-971.6796875,-1000.0,-1000.0,-1000.0
1578460428.7508907,-988.76953125,-978.515625,-999.0234375,-484.86328125,-1000.0
1578460428.7508907,-987.79296875,-1000.0,-960.44921875,-978.515625,-53.7109375
1578460428.7508907,-993.65234375,-994.140625,-928.22265625,399.4140625,224.609375
1578460428.7508907,-994.140625,-979.00390625,-979.98046875,-1000.0,-910.15625
1578460428.7508907,-986.328125,-982.421875,-980.46875,-775.87890625,-1000.0
1578460428.7508907,-987.3046875,-998.046875,-833.984375,873.53515625,130.859375
1578460428.7508907,-995.60546875,-987.79296875,-939.94140625,406.25,301.7578125
1578460428.7508907,-993.65234375,-966.796875,-1000.0,-1000.0,-1000.0
1578460428.7977657,-988.28125,-971.6796875,-934.5703125,-829.1015625,-952.63671875
1578460428.7977657,-988.28125,-990.234375,-945.3125,460.9375,-757.32421875
1578460428.7977657,-990.234375,-987.3046875,-1000.0,818.359375,-932.6171875
1578460428.7977657,-987.79296875,-967.7734375,-1000.0,-566.40625,-1000.0
1578460428.7977657,-986.81640625,-975.09765625,-917.48046875,-1000.0,-866.2109375
1578460428.7977657,-990.72265625,-995.1171875,-885.7421875,-110.3515625,11.23046875
1578460428.7977657,-989.2578125,-1000.0,-971.6796875,-834.9609375,-96.6796875
1578460428.7977657,-988.28125,-981.93359375,-1000.0,6.34765625,-1000.0
1578460428.7977657,-986.328125,-969.7265625,-806.640625,-1000.0,-716.796875
1578460428.7977657,-991.2109375,-986.328125,-675.29296875,-96.19140625,244.62890625
1578460428.7977657,-996.09375,-989.74609375,-995.1171875,-915.0390625,-657.71484375
1578460428.7977657,-987.79296875,-980.46875,-1000.0,337.890625,-1000.0
1578460428.8446407,-988.76953125,-976.5625,-948.2421875,-1000.0,-467.28515625
1578460428.8446407,-990.234375,-978.02734375,-987.3046875,-1000.0,-520.99609375
1578460428.8446407,-990.234375,-988.76953125,-1000.0,143.5546875,-1000.0
1578460428.8446407,-989.74609375,-990.72265625,-991.2109375,998.046875,-1000.0
1578460428.8446407,-989.74609375,-970.21484375,-944.82421875,-385.25390625,-488.76953125
1578460428.8446407,-991.69921875,-961.42578125,-909.1796875,-1000.0,-90.8203125
1578460428.8446407,-991.69921875,-984.86328125,-949.21875,83.984375,-305.6640625
1578460428.8446407,-990.234375,-995.1171875,-996.58203125,-815.4296875,-921.875
1578460428.8446407,-990.72265625,-986.81640625,-725.09765625,507.8125,-108.3984375
1578460428.8446407,-995.60546875,-979.98046875,-786.1328125,-1000.0,375.48828125
1578460428.8446407,-991.2109375,-986.328125,-1000.0,-610.3515625,-992.1875
1578460428.8446407,-987.3046875,-997.0703125,-987.79296875,998.046875,-888.671875
1578460428.8915157,-989.74609375,-979.98046875,-994.140625,155.2734375,-874.0234375
1578460428.8915157,-990.234375,-965.33203125,-1000.0,-1000.0,-986.328125
1578460428.8915157,-988.76953125,-979.98046875,-999.51171875,-820.3125,-1000.0
1578460428.8915157,-989.74609375,-994.62890625,-995.1171875,696.77734375,-701.171875
1578460428.8915157,-991.69921875,-988.76953125,-1000.0,421.875,-558.59375
1578460428.8915157,-991.2109375,-981.93359375,-913.57421875,-1000.0,-827.63671875
1578460428.8915157,-991.69921875,-985.83984375,-916.50390625,-922.8515625,-658.69140625
1578460428.8915157,-988.28125,-994.140625,-817.87109375,592.7734375,-378.90625
1578460428.8915157,-991.2109375,-992.1875,-752.44140625,634.27734375,453.125
1578460428.8915157,-995.1171875,-972.65625,-995.1171875,-836.42578125,-349.609375
1578460428.8915157,-989.74609375,-967.7734375,-1000.0,-1000.0,-1000.0
1578460428.8915157,-992.67578125,-983.88671875,-991.69921875,-62.5,-661.1328125
1578460428.9383907,-994.140625,-991.2109375,-1000.0,-992.67578125,-645.01953125
1578460428.9383907,-989.74609375,-980.46875,-1000.0,-296.38671875,-1000.0
1578460428.9383907,-989.74609375,-970.703125,-997.0703125,-1000.0,-1000.0
1578460428.9383907,-992.1875,-978.515625,-972.16796875,-241.69921875,-640.625
1578460428.9383907,-992.1875,-996.09375,-995.1171875,-864.74609375,-677.734375
1578460428.9383907,-988.28125,-983.88671875,-985.3515625,323.2421875,-661.62109375
1578460428.9383907,-987.3046875,-969.7265625,-896.484375,-1000.0,-724.609375
1578460428.9383907,-988.76953125,-994.140625,-680.17578125,-158.69140625,156.25
1578460428.9383907,-995.1171875,-1000.0,-802.24609375,-776.85546875,332.03125
1578460428.9383907,-991.69921875,-983.3984375,-1000.0,406.25,-1000.0
1578460428.9383907,-989.2578125,-973.14453125,-949.70703125,-900.87890625,-1000.0
1578460428.9383907,-990.234375,-975.09765625,-932.6171875,-1000.0,-903.3203125
1578460428.9852657,-990.234375,-991.2109375,-1000.0,-10.25390625,-968.75
1578460428.9852657,-990.72265625,-991.69921875,-1000.0,729.4921875,-1000.0
1578460428.9852657,-987.3046875,-970.21484375,-947.265625,-663.0859375,-912.109375
1578460428.9852657,-988.28125,-969.23828125,-936.5234375,-1000.0,-719.23828125
1578460428.9852657,-989.2578125,-983.88671875,-994.140625,-312.5,-889.16015625
1578460428.9852657,-987.79296875,-994.140625,-1000.0,-982.421875,-715.8203125
1578460428.9852657,-987.3046875,-988.76953125,-790.52734375,724.12109375,-415.52734375
1578460428.9852657,-992.1875,-979.98046875,-627.44140625,-642.08984375,480.95703125
1578460428.9852657,-995.60546875,-980.46875,-954.58984375,-901.85546875,-89.84375
1578460428.9852657,-988.76953125,-992.1875,-1000.0,703.125,-1000.0
1578460428.9852657,-990.72265625,-980.95703125,-983.88671875,395.99609375,-769.04296875
1578460428.9852657,-992.67578125,-963.8671875,-947.265625,-1000.0,-755.37109375
1578460429.0321407,-990.234375,-977.05078125,-943.359375,-1000.0,-1000.0
1578460429.0321407,-989.74609375,-993.65234375,-1000.0,303.22265625,-1000.0
1578460429.0321407,-989.74609375,-990.234375,-999.0234375,552.734375,-733.88671875
1578460429.0321407,-990.234375,-972.65625,-994.140625,-968.26171875,-764.6484375
1578460429.0321407,-990.234375,-974.609375,-1000.0,-1000.0,-1000.0
1578460429.0321407,-987.3046875,-993.65234375,-993.65234375,220.703125,-699.21875
1578460429.0321407,-988.76953125,-998.046875,-783.69140625,-921.38671875,483.88671875
1578460429.0321407,-994.140625,-977.05078125,-821.2890625,-145.01953125,316.89453125
1578460429.0321407,-990.72265625,-971.6796875,-1000.0,-1000.0,-1000.0
1578460429.0321407,-988.76953125,-990.234375,-979.00390625,-270.01953125,-983.3984375
1578460429.0321407,-992.67578125,-1000.0,-964.35546875,-900.390625,-831.54296875
1578460429.0321407,-992.1875,-994.140625,-1000.0,18.06640625,-896.484375
1578460429.0790157,-989.74609375,-989.74609375,-1000.0,-1000.0,-968.26171875
1578460429.0790157,-989.2578125,-997.0703125,-968.26171875,-349.609375,-924.31640625
1578460429.0790157,-990.72265625,-1000.0,-956.54296875,-870.1171875,-745.60546875
1578460429.0790157,-992.1875,-988.28125,-995.1171875,256.8359375,-940.91796875
1578460429.0790157,-989.2578125,-979.4921875,-1000.0,-1000.0,-1000.0
1578460429.0790157,-984.375,-989.74609375,-857.421875,-364.2578125,-480.46875
1578460429.0790157,-987.79296875,-1000.0,-802.24609375,-869.62890625,525.87890625
1578460429.0790157,-993.1640625,-997.55859375,-992.1875,566.40625,-168.45703125
1578460429.0790157,-990.234375,-980.95703125,-1000.0,-1000.0,-1000.0
1578460429.0790157,-986.81640625,-984.86328125,-845.21484375,-519.53125,-614.2578125
1578460429.0790157,-994.140625,-999.0234375,-823.73046875,896.97265625,-357.421875
1578460429.0790157,-994.140625,-981.93359375,-1000.0,931.640625,-991.69921875
1578460429.1258907,-989.2578125,-968.75,-996.58203125,-276.85546875,-1000.0
1578460429.1258907,-992.67578125,-976.5625,-972.65625,-1000.0,-561.5234375
1578460429.1258907,-992.67578125,-991.2109375,-986.81640625,-453.61328125,-108.88671875
1578460429.1258907,-990.234375,-996.09375,-1000.0,-979.98046875,-775.87890625
1578460429.1258907,-989.74609375,-983.3984375,-994.62890625,227.05078125,-1000.0
1578460429.1258907,-991.2109375,-971.6796875,-848.6328125,-1000.0,-40.52734375
1578460429.1258907,-994.62890625,-978.02734375,-842.28515625,-523.92578125,455.078125
1578460429.1258907,-992.1875,-985.83984375,-988.28125,933.10546875,-729.4921875
1578460429.1258907,-987.79296875,-980.95703125,-970.703125,644.53125,-1000.0
1578460429.1258907,-990.234375,-979.00390625,-738.28125,-547.36328125,-97.16796875
1578460429.1258907,-995.60546875,-979.00390625,-859.375,-1000.0,-78.125
1578460429.1258907,-991.2109375,-984.375,-1000.0,-49.8046875,-1000.0
1578460429.1727657,-988.28125,-994.62890625,-974.12109375,-943.359375,-945.3125
1578460429.1727657,-989.74609375,-985.3515625,-981.4453125,-293.9453125,-845.21484375
1578460429.1727657,-991.2109375,-972.16796875,-1000.0,-1000.0,-942.87109375
1578460429.1727657,-990.72265625,-977.05078125,-1000.0,-321.77734375,-1000.0
1578460429.1727657,-990.72265625,-984.86328125,-986.328125,-991.2109375,-858.88671875
1578460429.1727657,-990.234375,-979.98046875,-908.69140625,87.890625,-124.51171875
1578460429.1727657,-989.2578125,-965.33203125,-845.703125,-1000.0,-194.3359375
1578460429.1727657,-990.72265625,-976.07421875,-983.3984375,-567.3828125,-577.63671875
1578460429.1727657,-987.3046875,-997.0703125,-873.53515625,994.140625,-305.17578125
1578460429.1727657,-993.65234375,-990.234375,-738.76953125,293.45703125,165.0390625
1578460429.1727657,-996.58203125,-974.609375,-983.88671875,-1000.0,-705.078125
1578460429.1727657,-989.2578125,-983.3984375,-1000.0,-885.7421875,-1000.0
1578460429.2196407,-988.76953125,-999.0234375,-990.234375,636.71875,-630.37109375
1578460429.2196407,-990.234375,-997.0703125,-1000.0,417.48046875,-645.5078125
1578460429.2196407,-989.74609375,-978.515625,-1000.0,-1000.0,-1000.0
1578460429.2196407,-987.79296875,-982.421875,-998.046875,-1000.0,-1000.0
1578460429.2196407,-989.2578125,-999.51171875,-986.328125,254.39453125,-529.78515625
1578460429.2196407,-994.140625,-999.0234375,-964.84375,932.6171875,-96.19140625
1578460429.2196407,-994.62890625,-988.28125,-914.0625,-497.55859375,-535.15625
1578460429.2196407,-988.76953125,-984.375,-890.625,-1000.0,-1000.0
1578460429.2196407,-987.79296875,-997.0703125,-735.3515625,274.4140625,59.5703125
1578460429.2196407,-995.1171875,-997.0703125,-844.23828125,-895.5078125,341.796875
1578460429.2196407,-993.1640625,-978.515625,-1000.0,-196.77734375,-1000.0
1578460429.2196407,-987.79296875,-969.23828125,-901.3671875,-1000.0,-951.66015625
1578460429.2665157,-991.2109375,-978.02734375,-917.96875,-845.703125,-728.515625
1578460429.2665157,-992.1875,-987.3046875,-1000.0,579.58984375,-956.54296875
1578460429.2665157,-989.74609375,-979.00390625,-1000.0,262.6953125,-1000.0
1578460429.2665157,-989.74609375,-971.19140625,-939.94140625,-1000.0,-941.89453125
1578460429.2665157,-991.2109375,-971.19140625,-937.01171875,-890.13671875,-607.91015625
1578460429.2665157,-991.69921875,-989.2578125,-992.67578125,583.0078125,-328.61328125
1578460429.2665157,-990.72265625,-993.1640625,-1000.0,812.98828125,-537.59765625
1578460429.2665157,-987.3046875,-983.88671875,-774.90234375,-642.578125,-655.76171875
1578460429.2665157,-991.69921875,-985.83984375,-651.85546875,-1000.0,359.86328125
1578460429.2665157,-994.140625,-984.375,-980.95703125,-223.6328125,-250.48828125
1578460429.2665157,-991.2109375,-981.93359375,-1000.0,887.20703125,-1000.0
1578460429.2665157,-991.69921875,-972.16796875,-975.5859375,-289.55078125,-571.2890625
1578460429.3133907,-990.234375,-965.8203125,-996.09375,-1000.0,-685.546875
1578460429.3133907,-987.79296875,-974.609375,-1000.0,-240.234375,-1000.0
1578460429.3133907,-987.3046875,-989.2578125,-997.55859375,-835.44921875,-1000.0
1578460429.3133907,-990.234375,-978.515625,-996.09375,235.83984375,-748.046875
1578460429.3133907,-990.234375,-970.703125,-997.0703125,-1000.0,-812.01171875
1578460429.3133907,-988.76953125,-982.91015625,-960.44921875,-454.1015625,-613.28125
1578460429.3133907,-989.74609375,-996.09375,-981.4453125,997.0703125,-549.31640625
1578460429.3133907,-989.2578125,-996.09375,-763.671875,866.69921875,137.6953125
1578460429.3133907,-992.67578125,-971.19140625,-783.203125,-542.48046875,285.15625
1578460429.3133907,-991.2109375,-961.42578125,-1000.0,-1000.0,-1000.0
1578460429.3133907,-986.81640625,-987.79296875,-988.76953125,146.97265625,-1000.0
1578460429.3133907,-990.234375,-991.69921875,-989.74609375,533.69140625,-885.25390625
1578460429.3602657,-992.1875,-968.26171875,-1000.0,-897.4609375,-1000.0
1578460429.3602657,-989.2578125,-967.28515625,-1000.0,-1000.0,-859.86328125
1578460429.3602657,-989.2578125,-989.74609375,-990.234375,-98.14453125,-777.83203125
1578460429.3602657,-990.72265625,-999.0234375,-1000.0,-987.3046875,-814.94140625
1578460429.3602657,-989.2578125,-991.2109375,-964.84375,-180.17578125,-941.89453125
1578460429.3602657,-989.74609375,-976.5625,-928.22265625,-1000.0,-721.19140625
1578460429.3602657,-988.28125,-982.91015625,-785.15625,-204.1015625,-242.1875
1578460429.3602657,-993.1640625,-993.1640625,-750.0,-878.90625,554.19921875
1578460429.3602657,-994.140625,-982.421875,-996.58203125,-20.5078125,-215.8203125
1578460429.3602657,-987.79296875,-977.5390625,-1000.0,-1000.0,-1000.0
1578460429.3602657,-991.69921875,-981.4453125,-987.3046875,-769.53125,-591.796875
1578460429.3602657,-992.67578125,-985.3515625,-998.046875,625.0,-510.25390625
1578460429.4071407,-991.2109375,-981.4453125,-1000.0,321.77734375,-1000.0
1578460429.4071407,-990.234375,-970.21484375,-990.234375,-1000.0,-1000.0
1578460429.4071407,-989.2578125,-968.75,-959.9609375,-1000.0,-631.8359375
1578460429.4071407,-991.2109375,-991.2109375,-983.88671875,12.6953125,-633.30078125
1578460429.4071407,-990.234375,-999.0234375,-1000.0,875.9765625,-819.3359375
1578460429.4071407,-985.83984375,-983.88671875,-956.0546875,-510.25390625,-759.765625
1578460429.4071407,-986.81640625,-980.46875,-671.875,-920.41015625,193.359375
1578460429.4071407,-995.1171875,-988.76953125,-770.5078125,283.203125,354.4921875
1578460429.4071407,-993.65234375,-986.328125,-1000.0,939.453125,-1000.0
1578460429.4071407,-984.86328125,-972.65625,-956.0546875,-316.40625,-1000.0
1578460429.4071407,-987.3046875,-962.890625,-907.71484375,-1000.0,-908.69140625
1578460429.4071407,-992.1875,-974.609375,-995.1171875,-684.08203125,-980.95703125
1578460429.4540157,-989.2578125,-982.91015625,-1000.0,739.74609375,-1000.0
1578460429.4540157,-988.76953125,-970.703125,-958.49609375,180.17578125,-969.23828125
1578460429.4540157,-991.69921875,-968.75,-945.80078125,-1000.0,-843.26171875
1578460429.4540157,-991.69921875,-971.6796875,-994.140625,-931.640625,-947.75390625
1578460429.4540157,-990.234375,-986.328125,-1000.0,344.7265625,-1000.0
1578460429.4540157,-988.28125,-1000.0,-893.5546875,-897.4609375,-554.6875
1578460429.4540157,-989.74609375,-991.69921875,-744.62890625,-239.2578125,406.25
1578460429.4540157,-994.62890625,-986.328125,-903.80859375,-1000.0,-77.63671875
1578460429.4540157,-989.74609375,-996.58203125,-1000.0,-88.8671875,-1000.0
1578460429.4540157,-984.375,-1000.0,-879.8828125,-873.046875,-727.05078125
1578460429.4540157,-989.2578125,-988.76953125,-850.09765625,-56.15234375,-474.12109375
1578460429.4540157,-993.1640625,-973.6328125,-1000.0,-1000.0,-1000.0
1578460429.5008907,-990.72265625,-984.86328125,-1000.0,-328.61328125,-1000.0
1578460429.5008907,-991.69921875,-991.2109375,-951.66015625,-902.34375,-669.921875
1578460429.5008907,-992.67578125,-974.609375,-965.33203125,92.28515625,-657.2265625
1578460429.5008907,-990.72265625,-967.7734375,-1000.0,-1000.0,-1000.0
1578460429.5008907,-988.28125,-984.86328125,-995.60546875,-489.2578125,-1000.0
1578460429.5008907,-986.328125,-997.0703125,-965.8203125,-961.9140625,-20.01953125
1578460429.5008907,-991.69921875,-991.2109375,-943.359375,497.0703125,432.6171875
1578460429.5008907,-995.1171875,-971.19140625,-987.3046875,-1000.0,-749.0234375
1578460429.5008907,-987.79296875,-974.609375,-987.79296875,-833.0078125,-1000.0
1578460429.5008907,-989.2578125,-991.2109375,-841.796875,823.73046875,1.46484375
1578460429.5008907,-999.0234375,-983.88671875,-936.5234375,515.625,-1.46484375
1578460429.5008907,-992.67578125,-973.6328125,-1000.0,-1000.0,-1000.0
1578460429.5477657,-988.28125,-979.98046875,-945.3125,-836.9140625,-979.00390625
1578460429.5477657,-990.234375,-996.58203125,-955.078125,432.12890625,-296.875
1578460429.5477657,-989.74609375,-995.60546875,-1000.0,892.08984375,-512.20703125
1578460429.5477657,-987.3046875,-979.00390625,-1000.0,-479.00390625,-1000.0
1578460429.5477657,-987.79296875,-973.6328125,-927.734375,-1000.0,-866.69921875
1578460429.5477657,-990.234375,-984.375,-889.6484375,-88.8671875,-35.64453125
1578460429.5477657,-992.1875,-988.76953125,-972.65625,-894.04296875,-111.328125
1578460429.5477657,-993.1640625,-975.09765625,-1000.0,40.0390625,-1000.0
1578460429.5477657,-986.81640625,-974.609375,-822.75390625,-1000.0,-761.23046875
1578460429.5477657,-990.72265625,-989.74609375,-687.98828125,-421.38671875,224.12109375
1578460429.5477657,-995.1171875,-994.62890625,-991.2109375,790.0390625,-601.07421875
1578460429.5477657,-987.3046875,-984.86328125,-1000.0,210.44921875,-1000.0
1578460429.5946407,-990.234375,-972.16796875,-974.609375,-1000.0,-523.4375
1578460429.5946407,-993.1640625,-969.7265625,-994.140625,-1000.0,-494.62890625
1578460429.5946407,-989.2578125,-982.421875,-1000.0,-20.99609375,-1000.0
1578460429.5946407,-988.28125,-993.65234375,-998.046875,962.890625,-1000.0
1578460429.5946407,-991.69921875,-977.05078125,-968.26171875,-384.765625,-500.48828125
1578460429.5946407,-991.69921875,-979.98046875,-931.640625,-1000.0,-29.78515625
1578460429.5946407,-993.1640625,-994.62890625,-965.8203125,-90.33203125,-294.43359375
1578460429.5946407,-987.3046875,-996.09375,-1000.0,-843.75,-972.65625
1578460429.5946407,-985.3515625,-998.046875,-755.37109375,476.07421875,-112.3046875
1578460429.5946407,-996.09375,-990.72265625,-794.921875,-1000.0,404.78515625
1578460429.5946407,-991.69921875,-988.28125,-1000.0,-808.10546875,-1000.0
1578460429.5946407,-986.81640625,-999.0234375,-992.1875,762.6953125,-1000.0
1578460429.6415157,-990.72265625,-991.69921875,-998.53515625,175.78125,-879.39453125
1578460429.6415157,-992.1875,-975.09765625,-1000.0,-1000.0,-978.02734375
1578460429.6415157,-989.74609375,-981.4453125,-1000.0,-1000.0,-1000.0
1578460429.6415157,-988.76953125,-1000.0,-996.58203125,427.24609375,-683.10546875
1578460429.6415157,-991.2109375,-996.09375,-1000.0,395.5078125,-552.734375
1578460429.6415157,-991.69921875,-988.28125,-944.82421875,-1000.0,-784.66796875
1578460429.6415157,-988.28125,-989.74609375,-939.94140625,-1000.0,-649.4140625
1578460429.6415157,-986.81640625,-999.0234375,-823.2421875,328.61328125,-382.32421875
1578460429.6415157,-994.140625,-995.1171875,-763.671875,616.69921875,466.30859375
1578460429.6415157,-997.0703125,-976.5625,-997.0703125,-852.05078125,-295.41015625
1578460429.6415157,-989.2578125,-975.09765625,-1000.0,-1000.0,-1000.0
1578460429.6415157,-989.74609375,-990.234375,-991.2109375,-98.14453125,-656.25
1578460429.6883907,-990.72265625,-999.0234375,-1000.0,983.3984375,-598.14453125
1578460429.6883907,-988.76953125,-984.375,-1000.0,-308.59375,-1000.0
1578460429.6883907,-987.3046875,-971.19140625,-998.046875,-1000.0,-1000.0
1578460429.6883907,-990.72265625,-983.3984375,-978.02734375,-434.08203125,-637.6953125
1578460429.6883907,-991.69921875,-997.0703125,-994.62890625,978.515625,-614.2578125
1578460429.6883907,-988.28125,-984.375,-988.76953125,374.0234375,-770.01953125
1578460429.6883907,-988.76953125,-972.16796875,-914.0625,-1000.0,-782.71484375
1578460429.6883907,-988.28125,-989.2578125,-685.05859375,-205.078125,227.05078125
1578460429.6883907,-994.140625,-998.046875,-794.43359375,-774.90234375,347.65625
1578460429.6883907,-993.1640625,-981.93359375,-1000.0,294.43359375,-1000.0
1578460429.6883907,-986.81640625,-965.33203125,-964.84375,-964.35546875,-990.234375
1578460429.6883907,-986.81640625,-960.44921875,-952.1484375,-1000.0,-818.84765625
1578460429.7352657,-990.72265625,-976.5625,-1000.0,-92.28515625,-958.0078125
1578460429.7352657,-991.69921875,-985.83984375,-1000.0,814.453125,-1000.0
1578460429.7352657,-989.74609375,-976.07421875,-956.0546875,-532.71484375,-895.5078125
1578460429.7352657,-991.2109375,-964.84375,-944.82421875,-1000.0,-709.9609375
1578460429.7352657,-991.2109375,-979.00390625,-992.1875,-371.09375,-879.39453125
1578460429.7352657,-989.74609375,-998.046875,-1000.0,966.796875,-687.5
1578460429.7352657,-986.81640625,-992.1875,-816.89453125,820.3125,-455.56640625
1578460429.7352657,-990.72265625,-979.4921875,-648.92578125,-551.7578125,465.33203125
1578460429.7352657,-995.60546875,-977.05078125,-953.61328125,-985.3515625,9.765625
1578460429.7352657,-990.234375,-988.28125,-1000.0,621.09375,-1000.0
1578460429.7352657,-990.72265625,-987.3046875,-988.28125,481.93359375,-787.109375
1578460429.7352657,-991.2109375,-966.796875,-961.42578125,-1000.0,-734.86328125
1578460429.7821407,-991.2109375,-972.65625,-951.171875,-1000.0,-1000.0
1578460429.7821407,-991.2109375,-992.67578125,-1000.0,231.93359375,-1000.0
1578460429.7821407,-988.76953125,-984.86328125,-999.0234375,626.953125,-729.4921875
1578460429.7821407,-990.234375,-956.54296875,-994.140625,-874.51171875,-733.88671875
1578460429.7821407,-989.74609375,-954.1015625,-1000.0,-1000.0,-1000.0
1578460429.7821407,-985.83984375,-986.81640625,-986.81640625,148.92578125,-684.5703125
1578460429.7821407,-989.74609375,-1000.0,-799.31640625,-950.68359375,517.08984375
1578460429.7821407,-996.09375,-979.98046875,-859.86328125,-267.08984375,324.21875
1578460429.7821407,-992.1875,-966.796875,-1000.0,-1000.0,-1000.0
1578460429.7821407,-989.74609375,-979.4921875,-974.609375,-292.96875,-994.62890625
1578460429.7821407,-992.67578125,-993.1640625,-959.9609375,-900.87890625,-806.640625
1578460429.7821407,-992.1875,-975.09765625,-996.58203125,89.35546875,-875.48828125
1578460429.8290157,-989.2578125,-956.54296875,-1000.0,-1000.0,-977.5390625
1578460429.8290157,-988.76953125,-971.19140625,-949.21875,-401.3671875,-927.24609375
1578460429.8290157,-990.72265625,-990.72265625,-920.8984375,-879.8828125,-757.8125
1578460429.8290157,-993.1640625,-983.88671875,-989.2578125,334.47265625,-933.10546875
1578460429.8290157,-992.1875,-968.26171875,-1000.0,-1000.0,-1000.0
1578460429.8290157,-985.83984375,-982.91015625,-818.84765625,-417.96875,-514.6484375
1578460429.8290157,-990.72265625,-1000.0,-725.5859375,-875.9765625,385.25390625
1578460429.8290157,-994.62890625,-985.3515625,-988.28125,510.25390625,-417.48046875
1578460429.8290157,-987.79296875,-962.40234375,-1000.0,-866.69921875,-1000.0
1578460429.8290157,-987.79296875,-966.796875,-881.34765625,-1000.0,-626.953125
1578460429.8290157,-991.69921875,-980.46875,-894.53125,-61.5234375,-388.18359375
1578460429.8290157,-993.1640625,-984.375,-1000.0,881.8359375,-974.609375
1578460429.8758907,-989.2578125,-975.09765625,-995.60546875,-274.90234375,-1000.0
1578460429.8758907,-989.74609375,-971.6796875,-964.35546875,-1000.0,-534.1796875
1578460429.8758907,-990.72265625,-984.86328125,-978.515625,-622.55859375,-64.94140625
1578460429.8758907,-988.76953125,-996.58203125,-1000.0,836.9140625,-771.484375
1578460429.8758907,-986.328125,-984.375,-998.046875,216.796875,-1000.0
1578460429.8758907,-987.3046875,-980.95703125,-853.02734375,-1000.0,39.0625
1578460429.8758907,-990.234375,-990.72265625,-839.35546875,-695.80078125,609.86328125
1578460429.8758907,-989.74609375,-994.140625,-991.69921875,759.27734375,-801.7578125
1578460429.8758907,-987.79296875,-984.375,-979.98046875,639.16015625,-1000.0
1578460429.8758907,-991.69921875,-977.5390625,-739.2578125,-612.79296875,-278.3203125
1578460429.8758907,-996.58203125,-974.609375,-849.12109375,-1000.0,-399.4140625
1578460429.8758907,-992.1875,-982.91015625,-1000.0,-183.10546875,-1000.0
1578460429.9227657,-989.2578125,-978.02734375,-970.703125,996.09375,-936.03515625
1578460429.9227657,-990.234375,-962.40234375,-973.14453125,-246.58203125,-859.375
1578460429.9227657,-991.69921875,-966.30859375,-1000.0,-1000.0,-944.82421875
1578460429.9227657,-990.72265625,-984.375,-1000.0,-387.6953125,-1000.0
1578460429.9227657,-989.2578125,-997.55859375,-989.2578125,-932.12890625,-905.76171875
1578460429.9227657,-988.28125,-990.234375,-924.8046875,216.30859375,-156.73828125
1578460429.9227657,-990.234375,-981.4453125,-852.05078125,-1000.0,-184.08203125
1578460429.9227657,-991.69921875,-990.72265625,-968.75,-519.04296875,-557.12890625
1578460429.9227657,-985.83984375,-1000.0,-870.1171875,-957.51953125,-261.23046875
1578460429.9227657,-988.28125,-992.1875,-743.1640625,303.7109375,183.10546875
1578460429.9227657,-994.140625,-975.5859375,-980.46875,-1000.0,-675.29296875
1578460429.9227657,-988.76953125,-981.93359375,-1000.0,-909.66796875,-1000.0
1578460429.9696407,-990.234375,-1000.0,-991.2109375,630.37109375,-624.51171875
1578460429.9696407,-992.1875,-995.1171875,-1000.0,471.6796875,-614.2578125
1578460429.9696407,-987.3046875,-975.5859375,-1000.0,-1000.0,-1000.0
1578460429.9696407,-984.86328125,-979.98046875,-998.53515625,-1000.0,-1000.0
1578460429.9696407,-987.3046875,-996.58203125,-985.3515625,169.43359375,-512.20703125
1578460429.9696407,-992.67578125,-994.140625,-971.19140625,-959.47265625,-100.09765625
1578460429.9696407,-995.1171875,-981.93359375,-921.875,-326.66015625,-509.765625
1578460429.9696407,-989.2578125,-979.00390625,-893.06640625,-1000.0,-929.19921875
1578460429.9696407,-988.76953125,-995.1171875,-732.421875,178.7109375,140.625
1578460429.9696407,-995.1171875,-1000.0,-834.47265625,-841.796875,349.12109375
1578460429.9696407,-989.74609375,-985.83984375,-1000.0,-95.703125,-1000.0
1578460429.9696407,-986.81640625,-977.05078125,-913.0859375,-1000.0,-948.73046875
1578460430.0165157,-990.72265625,-980.46875,-918.9453125,-917.96875,-728.02734375
1578460430.0165157,-990.234375,-983.88671875,-1000.0,490.234375,-959.9609375
1578460430.0165157,-987.79296875,-978.02734375,-1000.0,312.5,-1000.0
1578460430.0165157,-988.76953125,-975.5859375,-946.2890625,-1000.0,-960.9375
1578460430.0165157,-992.67578125,-987.3046875,-942.87109375,-930.6640625,-613.28125
1578460430.0165157,-989.74609375,-1000.0,-991.69921875,485.3515625,-291.015625
1578460430.0165157,-988.76953125,-998.046875,-1000.0,925.78125,-485.83984375
1578460430.0165157,-987.79296875,-992.1875,-793.45703125,-504.8828125,-673.33984375
1578460430.0165157,-990.234375,-994.62890625,-662.109375,-1000.0,329.1015625
1578460430.0165157,-995.60546875,-989.74609375,-980.46875,-448.73046875,-203.61328125
1578460430.0165157,-987.79296875,-987.79296875,-1000.0,719.23828125,-1000.0
1578460430.0165157,-988.76953125,-983.88671875,-975.5859375,-212.40234375,-656.73828125
1578460430.0633907,-992.67578125,-973.14453125,-995.60546875,-1000.0,-748.53515625
1578460430.0633907,-990.72265625,-987.3046875,-1000.0,-234.375,-1000.0
1578460430.0633907,-990.72265625,-1000.0,-997.0703125,-878.41796875,-1000.0
1578460430.0633907,-989.74609375,-990.234375,-1000.0,254.8828125,-760.7421875
1578460430.0633907,-988.76953125,-982.421875,-997.0703125,-1000.0,-800.78125
1578460430.0633907,-990.234375,-983.88671875,-950.1953125,-568.84765625,-615.234375
1578460430.0633907,-991.69921875,-983.3984375,-983.88671875,878.41796875,-520.01953125
1578460430.0633907,-989.74609375,-986.81640625,-767.578125,925.29296875,179.19921875
1578460430.0633907,-996.09375,-970.21484375,-771.97265625,-472.65625,294.43359375
1578460430.0633907,-994.140625,-960.9375,-1000.0,-1000.0,-1000.0
1578460430.0633907,-987.79296875,-985.83984375,-988.76953125,63.96484375,-1000.0
1578460430.0633907,-987.79296875,-991.69921875,-983.3984375,558.10546875,-892.08984375
1578460430.1102657,-990.234375,-975.09765625,-1000.0,-856.93359375,-997.0703125
1578460430.1102657,-990.234375,-984.86328125,-1000.0,-1000.0,-854.98046875
1578460430.1102657,-988.76953125,-999.0234375,-988.76953125,-205.078125,-778.3203125
1578460430.1102657,-991.69921875,-999.0234375,-1000.0,-953.61328125,-834.9609375
1578460430.1102657,-991.2109375,-993.65234375,-962.890625,-56.640625,-933.10546875
1578460430.1102657,-990.72265625,-982.421875,-910.15625,-1000.0,-686.5234375
1578460430.1102657,-989.74609375,-987.3046875,-771.97265625,-211.42578125,-302.24609375
1578460430.1102657,-990.234375,-994.62890625,-746.09375,-854.4921875,531.73828125
1578460430.1102657,-992.67578125,-978.515625,-992.1875,18.5546875,-152.83203125
1578460430.1102657,-987.3046875,-963.8671875,-1000.0,-1000.0,-1000.0
1578460430.1102657,-989.2578125,-962.890625,-983.88671875,-1000.0,-586.9140625
1578460430.1102657,-991.2109375,-979.00390625,-997.55859375,301.7578125,-412.109375
1578460430.1571407,-989.74609375,-985.3515625,-1000.0,385.25390625,-1000.0
1578460430.1571407,-989.2578125,-977.05078125,-995.60546875,-1000.0,-1000.0
1578460430.1571407,-990.234375,-977.05078125,-970.703125,-1000.0,-639.6484375
1578460430.1571407,-990.72265625,-991.2109375,-985.3515625,-91.796875,-606.93359375
1578460430.1571407,-990.72265625,-991.69921875,-1000.0,937.01171875,-789.55078125
1578460430.1571407,-988.28125,-980.46875,-975.09765625,-446.2890625,-713.8671875
1578460430.1571407,-988.28125,-988.28125,-638.671875,-827.1484375,220.21484375
1578460430.1571407,-993.65234375,-992.1875,-701.171875,449.21875,370.1171875
1578460430.1571407,-992.67578125,-988.76953125,-1000.0,980.46875,-1000.0
1578460430.1571407,-990.234375,-979.00390625,-972.65625,-223.14453125,-1000.0
1578460430.1571407,-989.2578125,-970.703125,-946.77734375,-1000.0,-898.92578125
1578460430.1571407,-989.74609375,-976.5625,-999.0234375,-803.22265625,-978.515625
1578460430.2040157,-990.72265625,-988.76953125,-1000.0,627.44140625,-1000.0
1578460430.2040157,-989.74609375,-987.3046875,-964.35546875,458.49609375,-965.33203125
1578460430.2040157,-991.69921875,-972.65625,-948.73046875,-1000.0,-841.796875
1578460430.2040157,-992.67578125,-970.21484375,-993.65234375,-1000.0,-953.61328125
1578460430.2040157,-990.72265625,-991.69921875,-1000.0,251.953125,-1000.0
1578460430.2040157,-984.375,-1000.0,-895.5078125,-872.55859375,-633.7890625
1578460430.2040157,-988.28125,-991.69921875,-757.8125,-144.04296875,583.0078125
1578460430.2040157,-994.62890625,-979.98046875,-927.734375,-1000.0,197.75390625
1578460430.2040157,-990.234375,-989.2578125,-1000.0,-197.75390625,-1000.0
1578460430.2040157,-985.83984375,-1000.0,-860.83984375,-872.55859375,-819.3359375
1578460430.2040157,-988.76953125,-988.28125,-810.546875,-3.41796875,-677.24609375
1578460430.2040157,-992.1875,-967.7734375,-1000.0,-1000.0,-1000.0
1578460430.2508907,-987.79296875,-982.91015625,-1000.0,-420.8984375,-1000.0
1578460430.2508907,-989.2578125,-1000.0,-995.60546875,-963.37890625,-670.41015625
1578460430.2508907,-991.69921875,-990.72265625,-999.0234375,96.19140625,-624.0234375
1578460430.2508907,-991.2109375,-978.515625,-1000.0,-1000.0,-1000.0
1578460430.2508907,-989.2578125,-989.74609375,-1000.0,-599.609375,-1000.0
1578460430.2508907,-987.79296875,-1000.0,-955.56640625,937.98828125,3.90625
1578460430.2508907,-991.2109375,-994.62890625,-922.8515625,543.9453125,413.57421875
1578460430.2508907,-994.62890625,-973.6328125,-979.4921875,-1000.0,-898.4375
1578460430.2508907,-989.74609375,-975.09765625,-991.2109375,-939.453125,-1000.0
1578460430.2508907,-988.28125,-1000.0,-837.890625,696.77734375,56.640625
1578460430.2508907,-994.140625,-996.58203125,-926.26953125,553.7109375,60.546875
1578460430.2508907,-992.1875,-977.5390625,-1000.0,-1000.0,-1000.0
1578460430.2977657,-987.79296875,-985.83984375,-945.80078125,-947.75390625,-931.15234375
1578460430.2977657,-987.3046875,-1000.0,-938.4765625,321.77734375,-685.05859375
1578460430.2977657,-991.2109375,-996.09375,-1000.0,925.78125,-863.28125
1578460430.2977657,-989.74609375,-974.609375,-1000.0,-412.109375,-1000.0
1578460430.2977657,-985.3515625,-963.8671875,-924.31640625,-1000.0,-886.23046875
1578460430.2977657,-987.79296875,-985.83984375,-872.55859375,-115.72265625,-16.6015625
1578460430.2977657,-990.234375,-995.1171875,-964.35546875,-879.8828125,-3.90625
1578460430.2977657,-991.69921875,-985.3515625,-1000.0,190.91796875,-966.796875
1578460430.2977657,-988.76953125,-982.421875,-772.94921875,-1000.0,-810.05859375
1578460430.2977657,-989.74609375,-986.81640625,-681.15234375,-686.03515625,228.02734375
1578460430.2977657,-995.1171875,-994.140625,-989.2578125,578.61328125,-528.80859375
1578460430.2977657,-990.234375,-989.74609375,-1000.0,260.25390625,-1000.0
1578460430.3446407,-989.74609375,-971.19140625,-972.65625,-1000.0,-512.20703125
1578460430.3446407,-990.72265625,-971.19140625,-992.67578125,-1000.0,-395.5078125
1578460430.3446407,-990.234375,-990.72265625,-1000.0,-37.109375,-1000.0
1578460430.3446407,-987.3046875,-997.0703125,-999.51171875,963.37890625,-1000.0
1578460430.3446407,-989.2578125,-981.93359375,-970.21484375,-334.9609375,-491.2109375
1578460430.3446407,-991.2109375,-977.05078125,-924.8046875,-1000.0,-64.453125
1578460430.3446407,-991.69921875,-988.28125,-958.49609375,-145.01953125,-307.6171875
1578460430.3446407,-991.2109375,-1000.0,-1000.0,-837.890625,-705.078125
1578460430.3446407,-990.234375,-988.76953125,-760.7421875,487.3046875,44.43359375
1578460430.3446407,-995.1171875,-977.5390625,-783.69140625,-991.69921875,355.46875
1578460430.3446407,-993.1640625,-987.3046875,-1000.0,-835.44921875,-1000.0
1578460430.3446407,-987.3046875,-997.0703125,-993.1640625,753.90625,-1000.0
1578460430.3915157,-988.76953125,-987.3046875,-997.55859375,246.09375,-894.53125
1578460430.3915157,-990.72265625,-975.5859375,-1000.0,-1000.0,-995.1171875
1578460430.3915157,-989.74609375,-982.421875,-1000.0,-1000.0,-1000.0
1578460430.3915157,-988.76953125,-1000.0,-996.58203125,427.734375,-639.16015625
1578460430.3915157,-987.79296875,-989.74609375,-1000.0,500.0,-591.30859375
1578460430.3915157,-988.28125,-967.7734375,-946.2890625,-1000.0,-817.3828125
1578460430.3915157,-990.72265625,-978.515625,-936.03515625,-1000.0,-690.4296875
1578460430.3915157,-986.81640625,-998.53515625,-828.125,368.65234375,-479.4921875
1578460430.3915157,-991.2109375,-994.140625,-770.5078125,790.0390625,419.43359375
1578460430.3915157,-996.09375,-971.6796875,-993.65234375,-668.9453125,-235.3515625
1578460430.3915157,-989.74609375,-968.75,-1000.0,-1000.0,-1000.0
1578460430.3915157,-990.234375,-986.81640625,-992.1875,-153.3203125,-673.33984375
1578460430.4383907,-990.72265625,-992.1875,-1000.0,-926.26953125,-583.984375
1578460430.4383907,-989.74609375,-973.14453125,-1000.0,-146.484375,-1000.0
1578460430.4383907,-989.2578125,-976.07421875,-997.0703125,-1000.0,-1000.0
1578460430.4383907,-990.72265625,-992.1875,-973.6328125,-437.98828125,-636.71875
1578460430.4383907,-991.2109375,-998.046875,-994.62890625,992.1875,-575.1953125
1578460430.4383907,-987.79296875,-989.2578125,-990.72265625,494.62890625,-784.1796875
1578460430.4383907,-986.81640625,-968.75,-921.38671875,-1000.0,-847.16796875
1578460430.4383907,-989.2578125,-979.98046875,-679.6875,-229.98046875,227.05078125
1578460430.4383907,-994.140625,-993.65234375,-771.484375,-770.01953125,367.1875
1578460430.4383907,-991.69921875,-976.5625,-1000.0,308.59375,-1000.0
1578460430.4383907,-988.76953125,-975.5859375,-968.26171875,-948.2421875,-1000.0
1578460430.4383907,-989.2578125,-979.98046875,-949.21875,-1000.0,-891.11328125
1578460430.4852657,-989.74609375,-987.3046875,-999.0234375,-131.34765625,-964.35546875
1578460430.4852657,-989.2578125,-991.2109375,-1000.0,929.6875,-1000.0
1578460430.4852657,-988.28125,-979.4921875,-956.54296875,-343.26171875,-888.671875
1578460430.4852657,-989.2578125,-973.6328125,-943.359375,-1000.0,-701.66015625
1578460430.4852657,-989.74609375,-992.1875,-991.2109375,-391.11328125,-897.4609375
1578460430.4852657,-989.2578125,-998.53515625,-1000.0,935.546875,-702.1484375
1578460430.4852657,-986.328125,-987.79296875,-832.51953125,874.0234375,-479.00390625
1578460430.4852657,-988.76953125,-984.375,-654.78515625,-392.08984375,442.87109375
1578460430.4852657,-995.1171875,-986.328125,-943.84765625,-1000.0,104.00390625
1578460430.4852657,-990.72265625,-998.53515625,-1000.0,522.94921875,-1000.0
1578460430.4852657,-984.375,-997.55859375,-968.75,562.98828125,-810.546875
1578460430.4852657,-989.2578125,-977.5390625,-912.109375,-946.77734375,-736.328125
1578460430.5321407,-994.62890625,-977.5390625,-951.66015625,-1000.0,-1000.0
1578460430.5321407,-990.234375,-996.58203125,-1000.0,113.28125,-1000.0
1578460430.5321407,-990.72265625,-993.65234375,-998.046875,664.55078125,-720.21484375
1578460430.5321407,-993.1640625,-979.4921875,-997.55859375,-833.0078125,-715.33203125
1578460430.5321407,-989.74609375,-980.46875,-994.140625,-1000.0,-1000.0
1578460430.5321407,-989.2578125,-992.67578125,-1000.0,104.4921875,-697.75390625
1578460430.5321407,-989.74609375,-1000.0,-799.8046875,-863.28125,438.4765625
1578460430.5321407,-993.65234375,-989.74609375,-793.9453125,-35.15625,332.51953125
1578460430.5321407,-994.140625,-971.6796875,-1000.0,-1000.0,-1000.0
1578460430.5321407,-989.2578125,-979.98046875,-995.1171875,-376.953125,-1000.0
1578460430.5321407,-988.76953125,-989.74609375,-997.0703125,-916.9921875,-645.01953125
1578460430.5321407,-990.72265625,-980.46875,-998.53515625,150.87890625,-520.5078125
1578460430.5790157,-989.2578125,-977.05078125,-1000.0,-1000.0,-937.5
1578460430.5790157,-987.79296875,-991.2109375,-976.5625,-464.35546875,-962.890625
1578460430.5790157,-990.72265625,-1000.0,-962.890625,-909.66796875,-766.11328125
1578460430.5790157,-992.67578125,-995.1171875,-990.234375,415.52734375,-944.3359375
1578460430.5790157,-988.28125,-985.83984375,-1000.0,-1000.0,-1000.0
1578460430.5790157,-985.3515625,-992.67578125,-867.67578125,-448.2421875,-622.55859375
1578460430.5790157,-990.72265625,-999.51171875,-767.578125,-910.15625,555.17578125
1578460430.5790157,-994.140625,-995.60546875,-993.1640625,660.64453125,-34.1796875
1578460430.5790157,-988.76953125,-986.328125,-1000.0,-722.65625,-1000.0
1578460430.5790157,-988.76953125,-985.3515625,-897.4609375,-1000.0,-731.4453125
1578460430.5790157,-992.1875,-994.62890625,-910.64453125,-59.5703125,-587.40234375
1578460430.5790157,-991.2109375,-996.09375,-1000.0,977.5390625,-971.19140625
1578460430.6258907,-988.28125,-983.3984375,-996.58203125,-95.21484375,-1000.0
1578460430.6258907,-988.76953125,-974.609375,-982.91015625,-1000.0,-501.953125
1578460430.6258907,-991.69921875,-986.81640625,-990.234375,-736.81640625,-110.83984375
1578460430.6258907,-991.69921875,-998.046875,-1000.0,729.00390625,-922.8515625
1578460430.6258907,-989.2578125,-994.140625,-1000.0,386.23046875,-1000.0
1578460430.6258907,-987.79296875,-987.79296875,-909.1796875,-1000.0,31.25
1578460430.6258907,-989.2578125,-994.62890625,-885.7421875,-715.8203125,604.98046875
1578460430.6258907,-992.1875,-1000.0,-985.3515625,701.66015625,-795.41015625
1578460430.6258907,-990.72265625,-994.62890625,-1000.0,847.16796875,-1000.0
1578460430.6258907,-986.328125,-988.76953125,-739.2578125,-165.52734375,-249.51171875
1578460430.6258907,-994.140625,-986.81640625,-784.1796875,-1000.0,-353.02734375
1578460430.6258907,-993.65234375,-988.28125,-1000.0,-257.32421875,-1000.0
1578460430.6727657,-988.76953125,-999.51171875,-987.3046875,-886.71875,-939.94140625
1578460430.6727657,-988.76953125,-993.65234375,-993.1640625,-103.515625,-868.1640625
1578460430.6727657,-991.69921875,-986.328125,-1000.0,-1000.0,-946.2890625
1578460430.6727657,-991.2109375,-994.140625,-1000.0,-345.21484375,-1000.0
1578460430.6727657,-989.2578125,-999.0234375,-997.0703125,-883.7890625,-878.90625
1578460430.6727657,-991.2109375,-993.65234375,-949.70703125,278.80859375,-279.296875
1578460430.6727657,-993.1640625,-982.91015625,-873.046875,-1000.0,-257.32421875
1578460430.6727657,-991.2109375,-981.4453125,-979.4921875,-444.82421875,-682.12890625
1578460430.6727657,-986.81640625,-997.0703125,-900.390625,-888.671875,-752.9296875
1578460430.6727657,-992.1875,-992.1875,-786.1328125,349.12109375,395.01953125
1578460430.6727657,-994.62890625,-968.75,-992.1875,-1000.0,-248.53515625
1578460430.6727657,-988.76953125,-972.65625,-1000.0,-901.3671875,-1000.0
1578460430.7196407,-989.74609375,-993.1640625,-992.1875,639.6484375,-622.55859375
1578460430.7196407,-992.1875,-991.2109375,-1000.0,665.0390625,-589.84375
1578460430.7196407,-990.72265625,-974.12109375,-1000.0,-866.2109375,-1000.0
1578460430.7196407,-990.72265625,-968.26171875,-999.51171875,-1000.0,-1000.0
1578460430.7196407,-990.72265625,-980.95703125,-990.72265625,136.71875,-519.53125
1578460430.7196407,-986.81640625,-984.375,-996.58203125,-778.3203125,-46.875
1578460430.7196407,-988.76953125,-974.12109375,-952.1484375,56.15234375,-457.51953125
1578460430.7196407,-989.74609375,-968.26171875,-910.15625,-1000.0,-882.8125
1578460430.7196407,-989.2578125,-981.93359375,-748.046875,103.515625,167.48046875
1578460430.7196407,-996.58203125,-985.83984375,-833.0078125,-771.97265625,355.46875
1578460430.7196407,-993.65234375,-974.12109375,-1000.0,106.4453125,-1000.0
1578460430.7196407,-988.28125,-961.42578125,-931.15234375,-1000.0,-958.984375
1578460430.7665157,-989.74609375,-965.33203125,-932.6171875,-875.48828125,-752.44140625
1578460430.7665157,-990.72265625,-992.1875,-1000.0,625.9765625,-962.40234375
1578460430.7665157,-990.234375,-993.65234375,-1000.0,487.79296875,-1000.0
1578460430.7665157,-990.234375,-979.98046875,-952.63671875,-1000.0,-967.28515625
1578460430.7665157,-991.2109375,-983.88671875,-944.82421875,-921.875,-618.65234375
1578460430.7665157,-989.2578125,-998.53515625,-991.2109375,508.7890625,-392.08984375
1578460430.7665157,-990.234375,-992.67578125,-1000.0,-973.6328125,-586.9140625
1578460430.7665157,-987.79296875,-978.515625,-811.5234375,-296.875,-701.171875
1578460430.7665157,-988.76953125,-980.46875,-666.50390625,-1000.0,348.6328125
1578460430.7665157,-994.62890625,-992.67578125,-975.09765625,-289.0625,-158.203125
1578460430.7665157,-990.72265625,-1000.0,-1000.0,-883.7890625,-1000.0
1578460430.7665157,-991.69921875,-983.88671875,-976.5625,110.83984375,-659.1796875
1578460430.8133907,-993.1640625,-967.7734375,-996.58203125,-1000.0,-754.8828125
1578460430.8133907,-992.1875,-986.328125,-1000.0,-260.25390625,-1000.0
1578460430.8133907,-990.72265625,-996.09375,-997.55859375,-820.80078125,-1000.0
1578460430.8133907,-989.2578125,-975.09765625,-1000.0,285.15625,-755.37109375
1578460430.8133907,-989.2578125,-959.47265625,-996.58203125,-1000.0,-783.69140625
1578460430.8133907,-988.76953125,-971.6796875,-974.12109375,-555.6640625,-631.34765625
1578460430.8133907,-989.2578125,-988.28125,-1000.0,854.00390625,-570.80078125
1578460430.8133907,-988.28125,-991.69921875,-786.1328125,989.2578125,136.71875
1578460430.8133907,-993.65234375,-973.14453125,-782.2265625,-360.3515625,309.5703125
1578460430.8133907,-994.140625,-966.30859375,-1000.0,-1000.0,-1000.0
1578460430.8133907,-988.28125,-984.86328125,-992.67578125,56.15234375,-1000.0
1578460430.8133907,-987.79296875,-989.2578125,-993.1640625,764.16015625,-879.8828125
1578460430.8602657,-990.234375,-968.75,-1000.0,-661.62109375,-977.05078125
1578460430.8602657,-989.2578125,-958.49609375,-1000.0,-1000.0,-900.390625
1578460430.8602657,-985.83984375,-977.5390625,-993.1640625,-193.84765625,-872.55859375
1578460430.8602657,-988.76953125,-994.62890625,-1000.0,-832.03125,-840.33203125
1578460430.8602657,-990.72265625,-983.3984375,-968.75,202.1484375,-920.8984375
1578460430.8602657,-989.2578125,-973.14453125,-930.17578125,-1000.0,-783.69140625
1578460430.8602657,-987.79296875,-988.76953125,-796.875,-273.4375,-494.62890625
1578460430.8602657,-991.69921875,-999.0234375,-761.23046875,-815.91796875,504.39453125
1578460430.8602657,-994.62890625,-984.375,-992.1875,145.5078125,-104.4921875
1578460430.8602657,-988.76953125,-970.21484375,-1000.0,-1000.0,-1000.0
1578460430.8602657,-991.2109375,-976.5625,-985.3515625,-893.5546875,-667.96875
1578460430.8602657,-992.1875,-992.1875,-999.0234375,456.0546875,-560.546875
1578460430.9071407,-990.234375,-989.74609375,-1000.0,477.5390625,-1000.0
1578460430.9071407,-988.28125,-972.65625,-998.53515625,-928.22265625,-1000.0
1578460430.9071407,-990.72265625,-974.609375,-981.93359375,-1000.0,-625.9765625
1578460430.9071407,-991.69921875,-988.28125,-986.328125,-140.625,-527.34375
1578460430.9071407,-986.81640625,-989.74609375,-1000.0,-977.5390625,-727.05078125
1578460430.9071407,-986.328125,-978.02734375,-971.19140625,-167.48046875,-723.6328125
1578460430.9071407,-986.328125,-983.3984375,-689.453125,-1000.0,164.55078125
1578460430.9071407,-989.2578125,-993.65234375,-767.08984375,-69.3359375,392.578125
1578460430.9071407,-991.69921875,-990.72265625,-1000.0,-910.15625,-993.1640625
1578460430.9071407,-988.28125,-982.91015625,-977.05078125,-76.66015625,-1000.0
1578460430.9071407,-986.81640625,-977.05078125,-909.66796875,-1000.0,-881.34765625
1578460430.9071407,-989.2578125,-981.4453125,-956.0546875,-885.7421875,-971.6796875
1578460430.9540157,-990.72265625,-996.58203125,-1000.0,522.94921875,-1000.0
1578460430.9540157,-988.28125,-986.81640625,-969.7265625,450.68359375,-966.30859375
1578460430.9540157,-988.28125,-969.23828125,-956.54296875,-985.83984375,-854.98046875
1578460430.9540157,-991.69921875,-984.86328125,-993.65234375,-1000.0,-957.03125
1578460430.9540157,-990.72265625,-997.55859375,-1000.0,138.18359375,-1000.0
1578460430.9540157,-984.86328125,-992.1875,-905.76171875,-867.1875,-609.375
1578460430.9540157,-988.28125,-979.4921875,-768.06640625,-101.5625,391.6015625
1578460430.9540157,-993.1640625,-972.16796875,-932.12890625,-1000.0,17.578125
1578460430.9540157,-991.69921875,-980.46875,-1000.0,-240.234375,-1000.0
1578460430.9540157,-988.28125,-988.76953125,-869.140625,-874.51171875,-804.19921875
1578460430.9540157,-988.76953125,-977.05078125,-828.61328125,33.69140625,-431.15234375
1578460430.9540157,-993.1640625,-968.26171875,-1000.0,-1000.0,-838.37890625
1578460431.0008907,-990.72265625,-985.83984375,-1000.0,-467.7734375,-1000.0
1578460431.0008907,-989.74609375,-996.09375,-996.09375,-974.609375,-678.7109375
1578460431.0008907,-990.234375,-978.02734375,-999.51171875,146.484375,-612.3046875
1578460431.0008907,-989.2578125,-969.23828125,-1000.0,-1000.0,-1000.0
1578460431.0008907,-989.74609375,-985.83984375,-999.51171875,-642.08984375,-1000.0
1578460431.0008907,-990.234375,-1000.0,-972.65625,886.23046875,-37.109375
1578460431.0008907,-991.69921875,-992.67578125,-952.63671875,678.22265625,427.734375
1578460431.0008907,-991.69921875,-984.375,-989.74609375,-908.203125,-861.328125
1578460431.0008907,-987.79296875,-990.72265625,-999.51171875,-1000.0,-1000.0
1578460431.0008907,-988.76953125,-999.51171875,-851.5625,610.3515625,35.15625
1578460431.0008907,-995.1171875,-993.1640625,-923.33984375,661.62109375,56.640625
1578460431.0008907,-992.1875,-977.5390625,-1000.0,-870.1171875,-1000.0
1578460431.0477657,-988.28125,-975.5859375,-944.82421875,-1000.0,-943.359375
1578460431.0477657,-988.76953125,-985.83984375,-942.3828125,20.99609375,-680.17578125
1578460431.0477657,-991.2109375,-982.91015625,-1000.0,994.140625,-848.14453125
1578460431.0477657,-990.234375,-970.703125,-1000.0,-216.796875,-1000.0
1578460431.0477657,-986.81640625,-978.02734375,-934.08203125,-1000.0,-907.71484375
1578460431.0477657,-989.2578125,-996.09375,-891.11328125,-146.484375,-56.15234375
1578460431.0477657,-992.1875,-1000.0,-968.75,-887.20703125,28.80859375
1578460431.0477657,-993.1640625,-987.3046875,-1000.0,122.55859375,-934.5703125
1578460431.0477657,-985.83984375,-986.81640625,-844.23828125,-1000.0,-860.83984375
1578460431.0477657,-988.28125,-998.046875,-701.171875,-678.22265625,215.8203125
1578460431.0477657,-994.140625,-989.2578125,-983.88671875,559.08203125,-493.65234375
1578460431.0477657,-989.2578125,-979.00390625,-1000.0,367.67578125,-1000.0
1578460431.0946407,-991.69921875,-972.16796875,-967.7734375,-968.26171875,-525.390625
1578460431.0946407,-994.140625,-969.23828125,-988.28125,-1000.0,-502.9296875
1578460431.0946407,-990.72265625,-985.83984375,-1000.0,-91.30859375,-1000.0
1578460431.0946407,-988.76953125,-991.69921875,-1000.0,876.953125,-1000.0
1578460431.0946407,-990.234375,-974.12109375,-980.46875,-426.7578125,-527.83203125
1578460431.0946407,-991.69921875,-976.5625,-912.109375,-1000.0,-92.7734375
1578460431.0946407,-992.1875,-985.3515625,-933.10546875,-182.12890625,-321.77734375
1578460431.0946407,-990.234375,-994.62890625,-1000.0,-864.2578125,-973.14453125
1578460431.0946407,-988.76953125,-992.67578125,-772.4609375,621.58203125,-132.32421875
1578460431.0946407,-993.65234375,-973.6328125,-780.2734375,-851.07421875,412.59765625
1578460431.0946407,-993.1640625,-975.5859375,-1000.0,-994.62890625,-1000.0
1578460431.0946407,-988.28125,-989.2578125,-993.65234375,560.05859375,-1000.0
1578460431.1415157,-986.81640625,-974.609375,-996.58203125,246.09375,-873.046875
1578460431.1415157,-990.234375,-949.21875,-1000.0,-1000.0,-991.2109375
1578460431.1415157,-990.234375,-955.078125,-1000.0,-1000.0,-1000.0
1578460431.1415157,-989.2578125,-988.76953125,-995.60546875,236.328125,-608.88671875
1578460431.1415157,-988.76953125,-988.76953125,-1000.0,597.16796875,-575.1953125
1578460431.1415157,-987.79296875,-969.7265625,-948.2421875,-869.62890625,-713.8671875
1578460431.1415157,-991.2109375,-966.30859375,-931.15234375,-1000.0,-527.83203125
1578460431.1415157,-988.76953125,-986.328125,-825.1953125,232.91015625,-517.578125
1578460431.1415157,-993.1640625,-994.62890625,-772.94921875,787.109375,371.09375
1578460431.1415157,-995.1171875,-964.84375,-991.69921875,-656.25,-166.015625
1578460431.1415157,-991.2109375,-955.56640625,-1000.0,-1000.0,-1000.0
1578460431.1415157,-991.2109375,-977.5390625,-991.69921875,-232.91015625,-665.52734375
1578460431.1883907,-988.28125,-996.58203125,-1000.0,-946.2890625,-539.0625
1578460431.1883907,-988.76953125,-990.72265625,-1000.0,-75.68359375,-1000.0
1578460431.1883907,-985.83984375,-978.02734375,-999.51171875,-1000.0,-1000.0
1578460431.1883907,-989.74609375,-988.76953125,-985.83984375,-737.3046875,-650.390625
1578460431.1883907,-991.69921875,-1000.0,-995.60546875,664.55078125,-528.3203125
1578460431.1883907,-985.3515625,-997.0703125,-995.60546875,544.43359375,-692.87109375
1578460431.1883907,-988.28125,-976.07421875,-944.3359375,-1000.0,-820.3125
1578460431.1883907,-990.72265625,-978.02734375,-688.4765625,-322.265625,218.75
1578460431.1883907,-993.1640625,-990.72265625,-763.671875,-793.45703125,384.27734375
1578460431.1883907,-991.2109375,-976.5625,-1000.0,356.93359375,-1000.0
1578460431.1883907,-988.76953125,-955.56640625,-971.6796875,-922.8515625,-1000.0
1578460431.1883907,-991.2109375,-957.03125,-952.1484375,-1000.0,-892.578125
1578460431.2352657,-992.67578125,-976.07421875,-998.53515625,-244.62890625,-965.33203125
1578460431.2352657,-989.74609375,-979.00390625,-1000.0,855.95703125,-1000.0
1578460431.2352657,-988.76953125,-966.796875,-962.40234375,-371.58203125,-887.6953125
1578460431.2352657,-991.69921875,-965.33203125,-948.73046875,-1000.0,-732.91015625
1578460431.2352657,-989.74609375,-981.93359375,-989.74609375,-537.59765625,-905.76171875
1578460431.2352657,-985.83984375,-994.62890625,-1000.0,824.70703125,-637.20703125
1578460431.2352657,-983.88671875,-987.3046875,-853.02734375,801.26953125,-535.15625
1578460431.2352657,-991.2109375,-977.5390625,-662.59765625,-448.73046875,348.14453125
1578460431.2352657,-996.58203125,-970.703125,-939.94140625,-1000.0,180.17578125
1578460431.2352657,-989.2578125,-983.88671875,-1000.0,313.96484375,-987.3046875
1578460431.2352657,-989.2578125,-976.5625,-984.375,519.53125,-847.65625
1578460431.2352657,-992.1875,-958.49609375,-968.26171875,-957.51953125,-749.51171875
1578460431.2821407,-991.2109375,-973.6328125,-977.5390625,-1000.0,-999.0234375
1578460431.2821407,-989.2578125,-987.79296875,-1000.0,-2.44140625,-1000.0
1578460431.2821407,-992.1875,-984.86328125,-999.0234375,666.9921875,-720.21484375
1578460431.2821407,-993.1640625,-972.65625,-998.53515625,-761.23046875,-697.75390625
1578460431.2821407,-989.74609375,-974.12109375,-993.65234375,-1000.0,-1000.0
1578460431.2821407,-987.3046875,-994.62890625,-1000.0,-45.8984375,-678.7109375
1578460431.2821407,-986.81640625,-1000.0,-792.48046875,-877.9296875,437.01171875
1578460431.2821407,-992.1875,-977.05078125,-779.78515625,-90.8203125,347.65625
1578460431.2821407,-991.69921875,-967.7734375,-1000.0,-1000.0,-1000.0
1578460431.2821407,-988.28125,-985.83984375,-995.1171875,-466.30859375,-1000.0
1578460431.2821407,-989.2578125,-1000.0,-994.62890625,-995.60546875,-725.09765625
1578460431.2821407,-989.2578125,-985.3515625,-998.046875,165.0390625,-790.0390625
1578460431.3290157,-989.2578125,-979.4921875,-1000.0,-1000.0,-1000.0
1578460431.3290157,-986.328125,-994.140625,-972.65625,-594.23828125,-942.3828125
1578460431.3290157,-988.28125,-1000.0,-953.125,989.74609375,-770.99609375
1578460431.3290157,-993.65234375,-989.2578125,-989.74609375,356.4453125,-948.73046875
1578460431.3290157,-990.72265625,-974.609375,-1000.0,-1000.0,-1000.0
1578460431.3290157,-986.328125,-987.3046875,-861.81640625,-557.6171875,-595.703125
1578460431.3290157,-989.74609375,-1000.0,-744.140625,-987.3046875,571.77734375
1578460431.3290157,-994.62890625,-991.2109375,-981.93359375,618.1640625,-7.8125
1578460431.3290157,-989.74609375,-973.6328125,-1000.0,-758.7890625,-1000.0
1578460431.3290157,-990.72265625,-978.515625,-882.8125,-1000.0,-772.4609375
1578460431.3290157,-994.62890625,-989.74609375,-890.13671875,-372.55859375,-625.48828125
1578460431.3290157,-993.1640625,-985.3515625,-1000.0,718.75,-962.40234375
1578460431.3758907,-990.234375,-978.515625,-998.53515625,-292.48046875,-1000.0
1578460431.3758907,-989.74609375,-976.07421875,-976.5625,-1000.0,-537.59765625
1578460431.3758907,-991.69921875,-975.09765625,-984.86328125,-801.7578125,-160.15625
1578460431.3758907,-990.72265625,-987.3046875,-1000.0,476.07421875,-922.8515625
1578460431.3758907,-988.76953125,-990.72265625,-1000.0,141.6015625,-1000.0
1578460431.3758907,-988.76953125,-981.93359375,-915.52734375,-1000.0,-39.55078125
1578460431.3758907,-993.1640625,-985.3515625,-883.30078125,-918.9453125,615.234375
1578460431.3758907,-994.140625,-992.1875,-988.76953125,443.359375,-756.8359375
1578460431.3758907,-990.234375,-988.76953125,-988.28125,778.3203125,-1000.0
1578460431.3758907,-990.234375,-986.81640625,-922.36328125,-435.05859375,-265.13671875
1578460431.3758907,-994.140625,-977.05078125,-972.65625,-1000.0,-260.7421875
1578460431.3758907,-993.1640625,-981.4453125,-1000.0,-347.65625,-969.23828125
1578460431.4227657,-986.328125,-988.76953125,-985.83984375,-872.0703125,-944.82421875
1578460431.4227657,-987.79296875,-982.91015625,-729.98046875,402.83203125,-896.97265625
1578460431.4227657,-998.53515625,-974.12109375,-819.3359375,-1000.0,-952.1484375
1578460431.4227657,-994.140625,-986.81640625,-1000.0,-690.4296875,-1000.0
1578460431.4227657,-989.2578125,-1000.0,-991.69921875,869.62890625,-870.1171875
1578460431.4227657,-991.69921875,-991.69921875,-961.42578125,262.20703125,-358.88671875
1578460431.4227657,-993.1640625,-981.4453125,-895.01953125,-1000.0,-319.82421875
1578460431.4227657,-991.2109375,-985.83984375,-989.2578125,-599.12109375,-660.64453125
1578460431.4227657,-989.2578125,-995.1171875,-891.11328125,973.6328125,-591.30859375
1578460431.4227657,-994.62890625,-991.2109375,-777.34375,354.98046875,-341.30859375
1578460431.4227657,-995.60546875,-968.75,-990.72265625,-1000.0,-860.3515625
1578460431.4227657,-989.74609375,-968.26171875,-1000.0,-1000.0,-1000.0
1578460431.4696407,-990.72265625,-982.91015625,-991.69921875,419.921875,-517.578125
1578460431.4696407,-992.67578125,-987.3046875,-1000.0,585.9375,591.30859375
1578460431.4696407,-990.72265625,-979.4921875,-1000.0,-898.4375,-471.19140625
1578460431.4696407,-989.2578125,-977.05078125,-1000.0,-1000.0,-1000.0
1578460431.4696407,-990.72265625,-995.60546875,-994.140625,-27.83203125,-520.99609375
1578460431.4696407,-990.72265625,-1000.0,-1000.0,-848.14453125,-174.8046875
1578460431.4696407,-990.234375,-987.3046875,-968.26171875,-26.3671875,-657.2265625
1578460431.4696407,-991.2109375,-979.4921875,-933.10546875,-1000.0,-1000.0
1578460431.4696407,-989.2578125,-981.4453125,-747.0703125,17.578125,136.23046875
1578460431.4696407,-994.140625,-985.3515625,-819.3359375,-804.19921875,340.8203125
1578460431.4696407,-993.1640625,-979.98046875,-1000.0,40.52734375,-1000.0
1578460431.4696407,-989.74609375,-975.5859375,-945.80078125,-1000.0,-979.4921875
1578460431.5165157,-991.69921875,-989.74609375,-939.453125,-1000.0,-810.546875
1578460431.5165157,-991.69921875,-995.60546875,-1000.0,287.109375,-973.6328125
1578460431.5165157,-989.2578125,-988.76953125,-1000.0,405.76171875,-1000.0
1578460431.5165157,-990.72265625,-979.4921875,-957.51953125,-1000.0,-982.421875
1578460431.5165157,-991.2109375,-969.23828125,-951.171875,-1000.0,-648.4375
1578460431.5165157,-989.74609375,-981.4453125,-991.2109375,110.83984375,-449.21875
1578460431.5165157,-989.2578125,-996.58203125,-1000.0,985.3515625,-608.88671875
1578460431.5165157,-985.3515625,-988.76953125,-832.03125,-358.3984375,-815.91796875
1578460431.5165157,-990.72265625,-984.375,-673.828125,-1000.0,232.421875
1578460431.5165157,-994.62890625,-989.2578125,-971.19140625,-460.44921875,-87.890625
1578460431.5165157,-988.76953125,-993.65234375,-1000.0,917.48046875,-1000.0
1578460431.5165157,-990.72265625,-979.4921875,-982.421875,57.6171875,-754.39453125
1578460431.5633907,-990.72265625,-970.703125,-1000.0,-1000.0,-757.8125
1578460431.5633907,-991.2109375,-978.02734375,-995.1171875,-443.359375,-1000.0
1578460431.5633907,-992.1875,-993.1640625,-997.55859375,-950.68359375,-1000.0
1578460431.5633907,-991.69921875,-985.3515625,-1000.0,314.453125,-763.18359375
1578460431.5633907,-992.1875,-972.65625,-997.0703125,-1000.0,-778.80859375
1578460431.5633907,-991.2109375,-991.69921875,-977.5390625,-730.95703125,-635.7421875
1578460431.5633907,-991.2109375,-1000.0,-1000.0,645.01953125,-572.75390625
1578460431.5633907,-988.76953125,-998.53515625,-788.57421875,-949.70703125,126.953125
1578460431.5633907,-992.1875,-983.88671875,-774.4140625,-304.19921875,320.80078125
1578460431.5633907,-992.1875,-975.09765625,-1000.0,-1000.0,-1000.0
1578460431.5633907,-988.76953125,-991.2109375,-996.09375,0.48828125,-1000.0
1578460431.5633907,-986.81640625,-1000.0,-997.0703125,828.61328125,-887.6953125
1578460431.6102657,-988.28125,-985.3515625,-1000.0,-568.84765625,-965.33203125
1578460431.6102657,-989.74609375,-975.5859375,-1000.0,-1000.0,-905.2734375
1578460431.6102657,-987.3046875,-992.1875,-990.234375,-227.5390625,-906.73828125
1578460431.6102657,-986.81640625,-998.53515625,-993.65234375,-843.26171875,-859.86328125
1578460431.6102657,-990.234375,-991.2109375,-984.86328125,208.0078125,-919.43359375
1578460431.6102657,-993.1640625,-982.91015625,-947.75390625,-1000.0,-814.453125
1578460431.6102657,-988.28125,-986.81640625,-808.10546875,-284.1796875,-599.609375
1578460431.6102657,-989.74609375,-1000.0,-770.5078125,-813.96484375,467.7734375
1578460431.6102657,-994.140625,-993.65234375,-989.2578125,182.12890625,-52.24609375
1578460431.6102657,-989.2578125,-982.91015625,-1000.0,-1000.0,-1000.0
1578460431.6102657,-989.74609375,-993.1640625,-985.3515625,-951.66015625,-720.703125
1578460431.6102657,-991.69921875,-1000.0,-999.0234375,350.5859375,-604.00390625
1578460431.6571407,-990.234375,-996.58203125,-1000.0,585.9375,-998.046875
1578460431.6571407,-988.76953125,-982.421875,-999.51171875,-831.54296875,-1000.0
1578460431.6571407,-989.74609375,-978.515625,-982.421875,-1000.0,-631.8359375
1578460431.6571407,-991.69921875,-993.1640625,-985.83984375,-178.22265625,-455.078125
1578460431.6571407,-991.2109375,-994.140625,-1000.0,-861.81640625,-756.34765625
1578460431.6571407,-986.81640625,-988.28125,-975.09765625,27.83203125,-798.828125
1578460431.6571407,-989.2578125,-991.69921875,-684.5703125,-1000.0,156.73828125
1578460431.6571407,-996.58203125,-997.55859375,-751.46484375,53.22265625,424.8046875
1578460431.6571407,-993.65234375,-997.0703125,-1000.0,-873.53515625,-959.47265625
1578460431.6571407,-988.28125,-985.83984375,-976.5625,74.21875,-1000.0
1578460431.6571407,-990.234375,-967.28515625,-928.7109375,-1000.0,-874.0234375
1578460431.6571407,-992.1875,-967.28515625,-988.76953125,-836.9140625,-970.21484375
1578460431.7040157,-990.72265625,-978.02734375,-1000.0,566.40625,-1000.0
1578460431.7040157,-989.2578125,-981.93359375,-971.19140625,811.03515625,-969.7265625
1578460431.7040157,-990.234375,-975.5859375,-959.47265625,-669.921875,-872.0703125
1578460431.7040157,-991.69921875,-973.14453125,-991.69921875,-1000.0,-960.9375
1578460431.7040157,-989.2578125,-987.3046875,-1000.0,172.8515625,-1000.0
1578460431.7040157,-984.375,-983.3984375,-906.25,-835.9375,-579.1015625
1578460431.7040157,-989.2578125,-965.8203125,-764.16015625,13.18359375,466.30859375
1578460431.7040157,-995.1171875,-964.84375,-930.6640625,-1000.0,46.38671875
1578460431.7040157,-990.234375,-984.86328125,-1000.0,-223.6328125,-1000.0
1578460431.7040157,-985.83984375,-994.140625,-869.140625,-840.8203125,-821.77734375
1578460431.7040157,-989.74609375,-982.91015625,-826.66015625,86.42578125,-562.01171875
1578460431.7040157,-992.1875,-969.7265625,-1000.0,-1000.0,-967.7734375
1578460431.7508907,-990.72265625,-984.375,-1000.0,-466.796875,-1000.0
1578460431.7508907,-992.67578125,-1000.0,-996.09375,-944.82421875,-652.34375
1578460431.7508907,-992.67578125,-984.86328125,-999.51171875,218.75,-564.94140625
1578460431.7508907,-991.2109375,-966.30859375,-1000.0,-1000.0,-1000.0
1578460431.7508907,-989.2578125,-985.3515625,-1000.0,-640.13671875,-1000.0
1578460431.7508907,-988.76953125,-1000.0,-954.58984375,875.9765625,-25.390625
1578460431.7508907,-991.69921875,-990.234375,-912.109375,823.2421875,414.55078125
1578460431.7508907,-993.1640625,-971.6796875,-978.515625,-760.25390625,-881.34765625
1578460431.7508907,-989.74609375,-979.00390625,-997.55859375,-1000.0,-1000.0
1578460431.7508907,-990.234375,-997.55859375,-819.82421875,518.5546875,-0.9765625
1578460431.7508907,-993.65234375,-998.046875,-903.3203125,916.50390625,52.734375
1578460431.7508907,-991.2109375,-979.4921875,-1000.0,-509.765625,-1000.0
1578460431.7977657,-989.2578125,-978.02734375,-912.109375,-1000.0,-950.68359375
1578460431.7977657,-991.2109375,-991.2109375,-920.8984375,-3.41796875,-674.31640625
1578460431.7977657,-992.67578125,-996.58203125,-1000.0,-945.3125,-837.890625
1578460431.7977657,-989.74609375,-985.3515625,-1000.0,-39.55078125,-1000.0
1578460431.7977657,-987.79296875,-981.4453125,-926.26953125,-1000.0,-915.52734375
1578460431.7977657,-989.74609375,-996.58203125,-876.46484375,-380.859375,-55.17578125
1578460431.7977657,-992.67578125,-1000.0,-964.84375,-882.32421875,34.66796875
1578460431.7977657,-991.69921875,-988.28125,-1000.0,160.15625,-937.01171875
1578460431.7977657,-985.83984375,-980.95703125,-844.23828125,-1000.0,-893.5546875
1578460431.7977657,-989.74609375,-991.69921875,-682.12890625,-746.09375,193.84765625
1578460431.7977657,-995.1171875,-998.53515625,-974.12109375,468.75,-417.48046875
1578460431.7977657,-990.72265625,-997.55859375,-1000.0,475.09765625,-1000.0
1578460431.8446407,-990.72265625,-979.98046875,-969.23828125,-898.4375,-560.05859375
1578460431.8446407,-991.2109375,-980.95703125,-991.2109375,-1000.0,-548.33984375
1578460431.8446407,-988.76953125,-997.55859375,-1000.0,-62.5,-1000.0
1578460431.8446407,-989.74609375,-996.58203125,-1000.0,990.72265625,-1000.0
1578460431.8446407,-990.72265625,-981.4453125,-978.515625,-236.328125,-554.6875
1578460431.8446407,-989.2578125,-977.05078125,-923.33984375,-1000.0,-150.390625
1578460431.8446407,-991.69921875,-991.2109375,-924.31640625,-148.92578125,-340.33203125
1578460431.8446407,-990.72265625,-998.53515625,-1000.0,-875.9765625,-968.26171875
1578460431.8446407,-987.79296875,-994.62890625,-769.04296875,729.00390625,-167.48046875
1578460431.8446407,-993.1640625,-979.98046875,-760.25390625,-738.28125,398.92578125
1578460431.8446407,-992.67578125,-973.14453125,-1000.0,-996.58203125,-1000.0
1578460431.8446407,-988.28125,-990.72265625,-994.140625,611.328125,-1000.0
1578460431.8915157,-990.72265625,-983.88671875,-994.140625,264.6484375,-880.859375
1578460431.8915157,-991.69921875,-963.8671875,-1000.0,-1000.0,-1000.0
1578460431.8915157,-990.72265625,-970.21484375,-999.51171875,-1000.0,-993.65234375
1578460431.8915157,-988.76953125,-990.72265625,-996.58203125,223.6328125,-608.3984375
1578460431.8915157,-988.28125,-991.2109375,-995.1171875,710.44921875,-621.58203125
1578460431.8915157,-989.74609375,-976.5625,-919.921875,-786.1328125,-826.171875
1578460431.8915157,-991.2109375,-977.05078125,-920.8984375,-1000.0,-530.76171875
1578460431.8915157,-987.79296875,-993.1640625,-827.1484375,122.0703125,-474.609375
1578460431.8915157,-991.69921875,-995.1171875,-760.7421875,934.5703125,330.56640625
1578460431.8915157,-994.140625,-974.12109375,-985.3515625,-446.77734375,-113.76953125
1578460431.8915157,-989.2578125,-968.26171875,-1000.0,-1000.0,-1000.0
1578460431.8915157,-995.1171875,-979.4921875,-990.234375,-228.02734375,-686.5234375
1578460431.9383907,-995.60546875,-988.28125,-1000.0,-864.2578125,-539.55078125
1578460431.9383907,-990.72265625,-979.98046875,-1000.0,97.16796875,-1000.0
1578460431.9383907,-989.2578125,-975.09765625,-995.1171875,-1000.0,-1000.0
1578460431.9383907,-991.69921875,-992.67578125,-972.16796875,-689.94140625,-647.94921875
1578460431.9383907,-992.67578125,-995.60546875,-995.1171875,750.0,-522.4609375
1578460431.9383907,-988.28125,-982.91015625,-990.234375,704.58984375,-630.859375
1578460431.9383907,-987.79296875,-977.05078125,-935.546875,-977.5390625,-750.48828125
1578460431.9383907,-986.81640625,-989.2578125,-671.38671875,-333.0078125,164.0625
1578460431.9383907,-993.1640625,-998.53515625,-726.07421875,-811.5234375,394.53125
1578460431.9383907,-993.1640625,-984.375,-1000.0,537.109375,-1000.0
1578460431.9383907,-988.28125,-975.09765625,-976.5625,-764.16015625,-1000.0
1578460431.9383907,-989.2578125,-977.5390625,-950.1953125,-1000.0,-876.953125
1578460431.9852657,-992.1875,-985.83984375,-997.0703125,-235.83984375,-959.9609375
1578460431.9852657,-991.2109375,-987.79296875,-1000.0,-983.88671875,-1000.0
1578460431.9852657,-986.81640625,-983.3984375,-959.47265625,-110.3515625,-892.08984375
1578460431.9852657,-987.3046875,-979.00390625,-941.40625,-1000.0,-750.0
1578460431.9852657,-989.74609375,-988.76953125,-992.1875,-498.53515625,-907.71484375
1578460431.9852657,-988.28125,-996.58203125,-1000.0,833.0078125,-633.30078125
1578460431.9852657,-984.86328125,-993.65234375,-843.26171875,976.5625,-571.2890625
1578460431.9852657,-989.2578125,-987.79296875,-645.99609375,-173.828125,329.58984375
1578460431.9852657,-995.60546875,-980.46875,-916.015625,-1000.0,219.7265625
1578460431.9852657,-990.72265625,-990.234375,-1000.0,268.06640625,-1000.0
1578460431.9852657,-988.76953125,-993.1640625,-979.4921875,660.64453125,-862.79296875
1578460431.9852657,-989.2578125,-979.98046875,-956.0546875,-837.40234375,-719.7265625
1578460432.0321407,-993.1640625,-973.14453125,-976.5625,-1000.0,-998.53515625
1578460432.0321407,-990.72265625,-982.91015625,-1000.0,-20.5078125,-1000.0
1578460432.0321407,-989.74609375,-989.74609375,-998.046875,796.875,-721.6796875
1578460432.0321407,-991.69921875,-976.07421875,-999.0234375,-611.81640625,-683.10546875
1578460432.0321407,-991.2109375,-973.6328125,-993.1640625,-1000.0,-1000.0
1578460432.0321407,-988.76953125,-990.72265625,-1000.0,-94.7265625,-675.78125
1578460432.0321407,-987.79296875,-1000.0,-774.4140625,-842.28515625,405.76171875
1578460432.0321407,-994.62890625,-988.76953125,-769.04296875,78.125,364.74609375
1578460432.0321407,-995.1171875,-973.14453125,-1000.0,-1000.0,-989.2578125
1578460432.0321407,-989.74609375,-985.83984375,-995.60546875,-509.765625,-1000.0
1578460432.0321407,-989.74609375,-999.51171875,-992.1875,-989.2578125,-670.8984375
1578460432.0321407,-989.2578125,-988.28125,-997.0703125,243.1640625,-697.75390625
1578460432.0790157,-990.72265625,-980.46875,-1000.0,-1000.0,-1000.0
1578460432.0790157,-988.28125,-987.3046875,-969.7265625,-752.44140625,-950.1953125
1578460432.0790157,-988.76953125,-994.140625,-942.3828125,838.8671875,-774.4140625
1578460432.0790157,-993.65234375,-986.81640625,-988.76953125,592.28515625,-953.61328125
1578460432.0790157,-988.28125,-977.5390625,-1000.0,-1000.0,-1000.0
1578460432.0790157,-985.83984375,-991.2109375,-850.09765625,-586.42578125,-642.08984375
1578460432.0790157,-988.28125,-1000.0,-724.12109375,984.375,521.484375
1578460432.0790157,-991.2109375,-996.58203125,-975.5859375,812.01171875,38.57421875
1578460432.0790157,-991.2109375,-990.234375,-1000.0,-538.0859375,-1000.0
1578460432.0790157,-988.28125,-991.2109375,-875.9765625,-1000.0,-804.19921875
1578460432.0790157,-993.65234375,-990.234375,-875.9765625,-363.28125,-650.87890625
1578460432.0790157,-993.65234375,-994.140625,-1000.0,949.70703125,-956.0546875
1578460432.1258907,-988.28125,-988.76953125,-1000.0,88.8671875,-1000.0
1578460432.1258907,-991.2109375,-980.46875,-967.28515625,-1000.0,-568.84765625
1578460432.1258907,-992.1875,-986.81640625,-976.07421875,-789.55078125,-240.234375
1578460432.1258907,-989.2578125,-998.53515625,-1000.0,677.734375,-955.56640625
1578460432.1258907,-988.28125,-990.234375,-1000.0,601.5625,-1000.0
1578460432.1258907,-988.28125,-986.328125,-888.18359375,-981.4453125,-66.89453125
1578460432.1258907,-990.72265625,-996.09375,-850.09765625,-855.95703125,565.91796875
1578460432.1258907,-991.69921875,-1000.0,-968.75,522.94921875,-783.69140625
1578460432.1258907,-988.28125,-996.58203125,-1000.0,-984.375,-1000.0
1578460432.1258907,-987.3046875,-993.65234375,-721.19140625,124.0234375,-212.40234375
1578460432.1258907,-995.60546875,-989.74609375,-741.69921875,-1000.0,-266.11328125
1578460432.1258907,-993.65234375,-990.72265625,-1000.0,-345.21484375,-1000.0
1578460432.1727657,-987.79296875,-997.55859375,-986.328125,-873.53515625,-949.70703125
1578460432.1727657,-988.28125,-984.86328125,-986.328125,15.625,-869.62890625
1578460432.1727657,-989.2578125,-963.37890625,-1000.0,-1000.0,-943.84765625
1578460432.1727657,-988.28125,-976.5625,-1000.0,-525.87890625,-1000.0
1578460432.1727657,-989.2578125,-996.09375,-988.28125,988.28125,-825.68359375
1578460432.1727657,-987.79296875,-988.76953125,-920.8984375,389.16015625,-201.66015625
1578460432.1727657,-988.76953125,-975.09765625,-855.95703125,-1000.0,-152.34375
1578460432.1727657,-991.2109375,-982.421875,-956.0546875,-587.40234375,-751.46484375
1578460432.1727657,-987.79296875,-1000.0,-878.41796875,-988.76953125,-880.859375
1578460432.1727657,-990.72265625,-995.1171875,-769.04296875,393.06640625,431.640625
1578460432.1727657,-995.1171875,-972.65625,-981.4453125,-1000.0,-141.6015625
1578460432.1727657,-991.2109375,-972.16796875,-980.95703125,-1000.0,-1000.0
1578460432.2196407,-990.72265625,-995.1171875,-968.75,312.01171875,-648.4375
1578460432.2196407,-990.72265625,-996.58203125,-1000.0,681.15234375,-563.96484375
1578460432.2196407,-989.2578125,-984.86328125,-1000.0,-786.1328125,-998.046875
1578460432.2196407,-990.234375,-984.375,-1000.0,-1000.0,-1000.0
1578460432.2196407,-988.28125,-996.58203125,-993.65234375,-71.2890625,-529.78515625
1578460432.2196407,-988.28125,-999.51171875,-1000.0,-814.94140625,58.59375
1578460432.2196407,-991.69921875,-982.421875,-966.796875,67.3828125,-445.3125
1578460432.2196407,-989.2578125,-966.30859375,-933.59375,-1000.0,-900.390625
1578460432.2196407,-989.74609375,-984.375,-750.0,-60.05859375,174.31640625
1578460432.2196407,-997.0703125,-998.53515625,-810.546875,-783.69140625,359.86328125
1578460432.2196407,-994.140625,-983.88671875,-1000.0,188.4765625,-1000.0
1578460432.2196407,-988.76953125,-974.12109375,-942.87109375,-1000.0,-941.89453125
1578460432.2665157,-990.234375,-979.4921875,-929.6875,-1000.0,-812.98828125
1578460432.2665157,-991.2109375,-993.1640625,-1000.0,256.34765625,-983.88671875
1578460432.2665157,-989.74609375,-988.76953125,-1000.0,490.72265625,-1000.0
1578460432.2665157,-987.79296875,-976.5625,-961.42578125,-998.53515625,-994.62890625
1578460432.2665157,-988.76953125,-986.81640625,-951.66015625,-1000.0,-684.08203125
1578460432.2665157,-990.72265625,-1000.0,-989.74609375,167.96875,-478.515625
1578460432.2665157,-993.65234375,-998.53515625,-1000.0,-957.03125,-620.1171875
1578460432.2665157,-988.28125,-989.74609375,-831.54296875,-247.0703125,-843.75
1578460432.2665157,-991.2109375,-986.81640625,-667.96875,-1000.0,214.84375
1578460432.2665157,-997.0703125,-993.1640625,-958.49609375,-530.76171875,-37.109375
1578460432.2665157,-991.2109375,-998.53515625,-1000.0,930.6640625,-1000.0
1578460432.2665157,-993.65234375,-978.515625,-978.515625,200.68359375,-784.1796875
1578460432.3133907,-994.140625,-964.35546875,-997.0703125,-1000.0,-780.76171875
1578460432.3133907,-991.2109375,-977.05078125,-991.69921875,-495.60546875,-1000.0
1578460432.3133907,-990.72265625,-994.140625,-995.60546875,-982.91015625,-1000.0
1578460432.3133907,-990.234375,-993.65234375,-1000.0,352.5390625,-758.30078125
1578460432.3133907,-990.72265625,-979.4921875,-996.58203125,-1000.0,-760.25390625
1578460432.3133907,-989.2578125,-983.88671875,-962.40234375,-831.0546875,-633.30078125
1578460432.3133907,-987.79296875,-999.0234375,-1000.0,536.62109375,-589.35546875
1578460432.3133907,-986.81640625,-999.51171875,-792.48046875,-933.59375,92.28515625
1578460432.3133907,-993.65234375,-978.02734375,-766.11328125,-298.828125,334.9609375
1578460432.3133907,-992.67578125,-973.14453125,-1000.0,-1000.0,-1000.0
1578460432.3133907,-989.74609375,-993.1640625,-997.55859375,-49.8046875,-1000.0
1578460432.3133907,-991.2109375,-998.046875,-996.09375,892.08984375,-874.51171875
1578460432.3602657,-991.2109375,-982.421875,-1000.0,-467.28515625,-958.984375
1578460432.3602657,-991.2109375,-978.515625,-1000.0,-1000.0,-917.96875
1578460432.3602657,-987.3046875,-993.65234375,-985.83984375,-259.27734375,-909.1796875
1578460432.3602657,-986.81640625,-1000.0,-983.3984375,-851.5625,-879.8828125
1578460432.3602657,-990.234375,-992.1875,-991.69921875,213.8671875,-903.80859375
1578460432.3602657,-991.2109375,-987.3046875,-958.0078125,-1000.0,-784.66796875
1578460432.3602657,-988.28125,-996.58203125,-812.01171875,-318.84765625,-643.5546875
1578460432.3602657,-990.72265625,-1000.0,-763.671875,-823.2421875,458.49609375
1578460432.3602657,-995.1171875,-990.72265625,-981.93359375,242.67578125,-12.20703125
1578460432.3602657,-990.234375,-973.14453125,-1000.0,-1000.0,-1000.0
1578460432.3602657,-991.2109375,-978.515625,-981.4453125,-973.6328125,-769.53125
1578460432.3602657,-992.1875,-990.72265625,-998.046875,309.5703125,-639.16015625
1578460432.4071407,-990.72265625,-988.76953125,-1000.0,588.8671875,-980.46875
1578460432.4071407,-989.2578125,-979.4921875,-999.51171875,-799.8046875,-1000.0
1578460432.4071407,-990.72265625,-980.46875,-989.2578125,-1000.0,-646.97265625
1578460432.4071407,-992.1875,-993.1640625,-989.2578125,-246.58203125,-286.62109375
1578460432.4071407,-990.72265625,-1000.0,-1000.0,-830.56640625,-703.61328125
1578460432.4071407,-988.28125,-989.74609375,-988.76953125,58.59375,-923.828125
1578460432.4071407,-985.3515625,-986.328125,-657.2265625,-937.01171875,104.4921875
1578460432.4071407,-990.72265625,-989.2578125,-662.59765625,333.0078125,469.23828125
1578460432.4071407,-994.62890625,-983.3984375,-1000.0,-952.1484375,-913.57421875
1578460432.4071407,-989.2578125,-974.12109375,-992.67578125,-125.48828125,-1000.0
1578460432.4071407,-988.76953125,-970.21484375,-966.796875,-1000.0,-853.02734375
1578460432.4071407,-991.69921875,-982.421875,-997.55859375,-968.75,-959.9609375
1578460432.4540157,-989.2578125,-997.0703125,-1000.0,331.0546875,-1000.0
1578460432.4540157,-987.3046875,-997.55859375,-979.00390625,775.390625,-974.12109375
1578460432.4540157,-988.28125,-986.81640625,-967.28515625,-653.3203125,-885.7421875
1578460432.4540157,-991.2109375,-978.515625,-991.69921875,-1000.0,-967.28515625
1578460432.4540157,-990.72265625,-988.76953125,-1000.0,-42.48046875,-980.95703125
1578460432.4540157,-987.3046875,-994.62890625,-922.36328125,-843.26171875,-627.44140625
1578460432.4540157,-989.2578125,-983.3984375,-787.109375,37.59765625,512.20703125
1578460432.4540157,-993.1640625,-967.7734375,-935.05859375,-1000.0,459.47265625
1578460432.4540157,-990.72265625,-974.12109375,-1000.0,-345.21484375,-839.35546875
1578460432.4540157,-986.81640625,-997.55859375,-888.671875,-896.484375,-921.38671875
1578460432.4540157,-992.67578125,-983.88671875,-848.6328125,102.05078125,-745.60546875
1578460432.4540157,-994.62890625,-959.9609375,-1000.0,-1000.0,-972.16796875
1578460432.5008907,-989.74609375,-975.09765625,-1000.0,-653.80859375,-1000.0
1578460432.5008907,-990.234375,-992.1875,-996.09375,867.1875,-694.3359375
1578460432.5008907,-991.2109375,-985.3515625,-1000.0,187.5,-580.078125
1578460432.5008907,-990.234375,-976.5625,-1000.0,-1000.0,-1000.0
1578460432.5008907,-988.28125,-989.2578125,-1000.0,-806.640625,-1000.0
1578460432.5008907,-986.81640625,-1000.0,-972.16796875,691.89453125,-59.5703125
1578460432.5008907,-990.72265625,-990.72265625,-951.171875,761.71875,439.453125
1578460432.5008907,-993.1640625,-971.19140625,-993.1640625,-817.3828125,-836.42578125
1578460432.5008907,-987.79296875,-977.05078125,-1000.0,-1000.0,-1000.0
1578460432.5008907,-989.2578125,-990.72265625,-851.5625,391.6015625,10.25390625
1578460432.5008907,-995.60546875,-987.3046875,-908.203125,764.16015625,83.984375
1578460432.5008907,-990.72265625,-973.6328125,-1000.0,-733.3984375,-1000.0
1578460432.5477657,-986.81640625,-978.515625,-941.40625,-1000.0,-960.9375
1578460432.5477657,-989.2578125,-998.53515625,-934.08203125,-369.62890625,-689.453125
1578460432.5477657,-990.72265625,-1000.0,-1000.0,843.75,-845.21484375
1578460432.5477657,-988.76953125,-990.72265625,-1000.0,-32.71484375,-1000.0
1578460432.5477657,-987.79296875,-984.86328125,-934.08203125,-1000.0,-940.91796875
1578460432.5477657,-988.28125,-990.72265625,-878.41796875,-449.21875,-51.7578125
1578460432.5477657,-990.234375,-991.69921875,-965.33203125,-963.8671875,54.6875
1578460432.5477657,-991.69921875,-982.91015625,-1000.0,166.9921875,-948.73046875
1578460432.5477657,-985.83984375,-987.3046875,-856.93359375,-1000.0,-944.3359375
1578460432.5477657,-991.2109375,-998.53515625,-698.2421875,-1000.0,175.78125
1578460432.5477657,-998.046875,-996.58203125,-973.14453125,65.91796875,-393.06640625
1578460432.5477657,-988.76953125,-990.72265625,-1000.0,486.328125,-1000.0
1578460432.5946407,-989.74609375,-982.421875,-967.28515625,-910.64453125,-528.80859375
1578460432.5946407,-992.1875,-975.5859375,-989.2578125,-1000.0,-510.7421875
1578460432.5946407,-989.2578125,-980.95703125,-1000.0,-140.625,-1000.0
1578460432.5946407,-989.2578125,-988.76953125,-1000.0,-952.63671875,-1000.0
1578460432.5946407,-992.1875,-979.98046875,-982.91015625,-38.0859375,-589.84375
1578460432.5946407,-989.74609375,-971.19140625,-934.08203125,-1000.0,-51.7578125
1578460432.5946407,-989.74609375,-984.86328125,-937.98828125,-250.0,-319.82421875
1578460432.5946407,-989.2578125,-998.53515625,-1000.0,-904.296875,-1000.0
1578460432.5946407,-989.2578125,-993.1640625,-787.109375,788.0859375,-169.921875
1578460432.5946407,-994.62890625,-973.14453125,-764.6484375,-714.84375,395.5078125
1578460432.5946407,-991.69921875,-960.44921875,-1000.0,-988.76953125,-1000.0
1578460432.5946407,-987.3046875,-972.16796875,-993.1640625,717.28515625,-1000.0
1578460432.6415157,-983.88671875,-974.609375,-989.74609375,315.4296875,-861.81640625
1578460432.6415157,-988.28125,-965.8203125,-1000.0,-1000.0,-991.69921875
1578460432.6415157,-992.1875,-969.7265625,-1000.0,-1000.0,-909.1796875
1578460432.6415157,-988.76953125,-980.95703125,-995.60546875,48.33984375,-580.078125
1578460432.6415157,-986.81640625,-981.93359375,-1000.0,828.125,-656.73828125
1578460432.6415157,-989.2578125,-970.21484375,-958.984375,-515.13671875,-854.4921875
1578460432.6415157,-991.2109375,-963.37890625,-937.98828125,-1000.0,-523.4375
1578460432.6415157,-988.28125,-982.91015625,-835.9375,19.53125,-490.72265625
1578460432.6415157,-992.67578125,-995.60546875,-770.5078125,966.30859375,303.7109375
1578460432.6415157,-995.60546875,-972.16796875,-982.91015625,-388.671875,-69.82421875
1578460432.6415157,-988.76953125,-964.35546875,-1000.0,-1000.0,-1000.0
1578460432.6415157,-988.28125,-980.46875,-988.28125,-285.15625,-603.515625
1578460432.6883907,-989.74609375,-988.28125,-1000.0,-890.625,-507.8125
1578460432.6883907,-989.2578125,-974.12109375,-1000.0,116.69921875,-1000.0
1578460432.6883907,-987.79296875,-964.84375,-996.09375,-1000.0,-1000.0
1578460432.6883907,-990.72265625,-967.28515625,-975.09765625,-800.78125,-664.0625
1578460432.6883907,-992.1875,-985.3515625,-995.60546875,579.1015625,-512.6953125
1578460432.6883907,-990.234375,-984.86328125,-988.76953125,773.4375,-733.88671875
1578460432.6883907,-990.72265625,-970.703125,-936.5234375,-916.50390625,-872.55859375
1578460432.6883907,-988.28125,-987.3046875,-674.8046875,-381.8359375,136.71875
1578460432.6883907,-992.1875,-999.0234375,-709.9609375,-829.1015625,409.1796875
1578460432.6883907,-995.1171875,-983.88671875,-1000.0,576.66015625,-998.046875
1578460432.6883907,-990.234375,-975.5859375,-979.98046875,-726.5625,-1000.0
1578460432.6883907,-988.28125,-967.7734375,-945.80078125,-1000.0,-860.83984375
1578460432.7352657,-990.72265625,-978.02734375,-996.09375,-298.828125,-955.078125
1578460432.7352657,-991.2109375,-994.62890625,-1000.0,-995.1171875,-1000.0
1578460432.7352657,-987.3046875,-972.16796875,-957.03125,-74.70703125,-908.69140625
1578460432.7352657,-986.81640625,-960.44921875,-936.03515625,-1000.0,-798.828125
1578460432.7352657,-989.74609375,-973.6328125,-988.76953125,-692.3828125,-920.8984375
1578460432.7352657,-991.2109375,-988.76953125,-1000.0,643.5546875,-657.71484375
1578460432.7352657,-987.79296875,-994.62890625,-874.0234375,-955.56640625,-573.73046875
1578460432.7352657,-990.234375,-986.328125,-654.78515625,-138.18359375,334.9609375
1578460432.7352657,-994.140625,-981.4453125,-912.109375,-1000.0,337.40234375
1578460432.7352657,-988.28125,-989.74609375,-1000.0,201.171875,-965.8203125
1578460432.7352657,-987.79296875,-994.140625,-972.65625,727.05078125,-908.69140625
1578460432.7352657,-990.234375,-974.12109375,-953.125,-760.7421875,-742.1875
1578460432.7821407,-991.69921875,-969.7265625,-983.3984375,-1000.0,-988.76953125
1578460432.7821407,-989.74609375,-983.88671875,-1000.0,-111.328125,-1000.0
1578460432.7821407,-991.69921875,-979.98046875,-998.046875,860.3515625,-717.7734375
1578460432.7821407,-992.1875,-972.65625,-999.0234375,-474.609375,-663.57421875
1578460432.7821407,-989.74609375,-978.515625,-992.67578125,-1000.0,-1000.0
1578460432.7821407,-988.76953125,-992.1875,-1000.0,-156.73828125,-681.640625
1578460432.7821407,-988.76953125,-1000.0,-773.4375,-843.26171875,359.375
1578460432.7821407,-993.65234375,-982.421875,-753.90625,115.72265625,383.7890625
1578460432.7821407,-991.69921875,-964.84375,-1000.0,-1000.0,-961.9140625
1578460432.7821407,-988.28125,-982.421875,-998.046875,-584.47265625,-1000.0
1578460432.7821407,-989.74609375,-984.375,-993.1640625,957.03125,-595.21484375
1578460432.7821407,-990.72265625,-967.7734375,-996.58203125,299.8046875,-631.34765625
1578460432.8290157,-989.74609375,-960.9375,-1000.0,-1000.0,-1000.0
1578460432.8290157,-989.74609375,-976.5625,-958.984375,-659.1796875,-948.73046875
1578460432.8290157,-991.69921875,-998.53515625,-930.17578125,937.5,-779.78515625
1578460432.8290157,-993.65234375,-988.76953125,-990.234375,620.60546875,-946.2890625
1578460432.8290157,-989.2578125,-970.703125,-1000.0,-1000.0,-1000.0
1578460432.8290157,-984.86328125,-979.00390625,-854.4921875,-615.72265625,-686.5234375
1578460432.8290157,-987.79296875,-994.140625,-725.09765625,961.42578125,506.8359375
1578460432.8290157,-994.140625,-989.74609375,-967.28515625,839.35546875,76.66015625
1578460432.8290157,-992.1875,-979.00390625,-1000.0,-500.9765625,-1000.0
1578460432.8290157,-986.81640625,-982.91015625,-880.37109375,-1000.0,-821.77734375
1578460432.8290157,-991.2109375,-993.65234375,-875.9765625,-528.80859375,-655.2734375
1578460432.8290157,-992.1875,-1000.0,-1000.0,850.5859375,-949.70703125
1578460432.8758907,-988.76953125,-989.74609375,-1000.0,108.88671875,-1000.0
1578460432.8758907,-991.2109375,-978.515625,-971.6796875,-1000.0,-543.9453125
1578460432.8758907,-992.67578125,-985.3515625,-979.00390625,-932.6171875,-239.2578125
1578460432.8758907,-991.2109375,-994.62890625,-1000.0,408.69140625,-976.5625
1578460432.8758907,-989.74609375,-990.72265625,-1000.0,670.8984375,-1000.0
1578460432.8758907,-989.2578125,-983.3984375,-885.25390625,-863.28125,-105.46875
1578460432.8758907,-991.2109375,-987.3046875,-845.703125,-1000.0,620.1171875
1578460432.8758907,-993.65234375,-991.69921875,-961.42578125,282.71484375,-556.640625
1578460432.8758907,-990.72265625,-994.140625,-1000.0,-950.68359375,-1000.0
1578460432.8758907,-986.328125,-994.62890625,-734.375,132.32421875,-236.81640625
1578460432.8758907,-993.65234375,-982.91015625,-737.3046875,-1000.0,-226.07421875
1578460432.8758907,-995.1171875,-980.46875,-1000.0,-552.734375,-1000.0
1578460432.9227657,-991.2109375,-992.67578125,-988.76953125,983.88671875,-959.9609375
1578460432.9227657,-988.76953125,-984.375,-985.83984375,80.56640625,-884.27734375
1578460432.9227657,-989.74609375,-968.75,-1000.0,-1000.0,-943.84765625
1578460432.9227657,-991.69921875,-977.05078125,-1000.0,-674.8046875,-1000.0
1578460432.9227657,-988.76953125,-996.09375,-991.2109375,834.9609375,-792.48046875
1578460432.9227657,-988.76953125,-993.65234375,-929.6875,412.59765625,-189.94140625
1578460432.9227657,-991.2109375,-983.88671875,-859.375,-1000.0,-280.2734375
1578460432.9227657,-993.1640625,-982.91015625,-948.73046875,-790.0390625,-837.890625
1578460432.9227657,-988.76953125,-990.72265625,-882.8125,769.53125,-878.90625
1578460432.9227657,-990.234375,-995.1171875,-770.01953125,455.078125,434.5703125
1578460432.9227657,-994.62890625,-979.00390625,-975.5859375,-1000.0,-95.703125
1578460432.9227657,-991.2109375,-976.5625,-1000.0,-1000.0,-1000.0
1578460432.9696407,-992.1875,-990.234375,-990.72265625,172.8515625,-668.45703125
1578460432.9696407,-991.69921875,-988.76953125,-1000.0,745.1171875,-564.453125
1578460432.9696407,-990.72265625,-968.26171875,-1000.0,-697.75390625,-991.2109375
1578460432.9696407,-990.234375,-963.37890625,-1000.0,-1000.0,-1000.0
1578460432.9696407,-989.74609375,-981.4453125,-990.234375,-138.18359375,-545.8984375
1578460432.9696407,-989.74609375,-999.0234375,-998.53515625,-811.5234375,19.04296875
1578460432.9696407,-990.234375,-985.3515625,-967.28515625,140.625,-484.375
1578460432.9696407,-992.1875,-969.23828125,-933.10546875,-1000.0,-903.80859375
1578460432.9696407,-988.76953125,-985.83984375,-738.76953125,-116.2109375,133.30078125
1578460432.9696407,-990.234375,-998.046875,-793.9453125,-777.83203125,373.53515625
1578460432.9696407,-992.67578125,-976.5625,-1000.0,267.578125,-1000.0
1578460432.9696407,-989.74609375,-969.23828125,-969.23828125,-1000.0,-1000.0
1578460433.0165157,-991.2109375,-975.5859375,-948.2421875,-1000.0,-834.47265625
1578460433.0165157,-993.65234375,-986.328125,-998.046875,185.546875,-954.58984375
1578460433.0165157,-990.72265625,-990.234375,-1000.0,535.64453125,-1000.0
1578460433.0165157,-988.76953125,-982.91015625,-955.078125,-942.3828125,-986.328125
1578460433.0165157,-989.74609375,-986.328125,-937.01171875,-1000.0,-617.1875
1578460433.0165157,-987.79296875,-997.0703125,-986.81640625,64.453125,-422.8515625
1578460433.0165157,-987.79296875,-1000.0,-1000.0,-933.10546875,-601.07421875
1578460433.0165157,-984.375,-995.60546875,-846.19140625,-174.8046875,-844.23828125
1578460433.0165157,-988.76953125,-985.83984375,-679.19921875,-1000.0,208.0078125
1578460433.0165157,-997.0703125,-984.375,-955.078125,-644.53125,25.390625
1578460433.0165157,-989.74609375,-992.1875,-1000.0,833.0078125,-1000.0
1578460433.0165157,-989.2578125,-977.5390625,-979.4921875,287.59765625,-810.546875
1578460433.0633907,-992.67578125,-967.7734375,-994.62890625,-1000.0,-755.859375
1578460433.0633907,-992.1875,-979.98046875,-988.76953125,-742.1875,-997.0703125
1578460433.0633907,-991.2109375,-991.2109375,-996.58203125,730.46875,-1000.0
1578460433.0633907,-991.69921875,-986.328125,-1000.0,387.6953125,-739.74609375
1578460433.0633907,-991.69921875,-963.37890625,-996.09375,-1000.0,-714.84375
1578460433.0633907,-990.234375,-964.35546875,-959.47265625,-1000.0,-605.46875
1578460433.0633907,-989.2578125,-987.3046875,-1000.0,271.484375,-525.390625
1578460433.0633907,-987.79296875,-994.62890625,-804.19921875,-868.1640625,118.1640625
1578460433.0633907,-993.1640625,-979.98046875,-764.16015625,-171.38671875,356.4453125
1578460433.0633907,-993.1640625,-967.7734375,-1000.0,-1000.0,-1000.0
1578460433.0633907,-987.3046875,-985.3515625,-999.0234375,-128.41796875,-1000.0
1578460433.0633907,-988.28125,-993.65234375,-996.09375,884.765625,-767.578125
1578460433.1102657,-990.72265625,-979.4921875,-1000.0,-441.40625,-932.12890625
1578460433.1102657,-990.72265625,-969.23828125,-1000.0,-1000.0,-967.28515625
1578460433.1102657,-988.76953125,-980.95703125,-984.86328125,-318.84765625,-925.78125
1578460433.1102657,-990.234375,-998.046875,-980.46875,-877.44140625,-879.8828125
1578460433.1102657,-991.69921875,-986.328125,-994.62890625,241.2109375,-896.484375
1578460433.1102657,-990.72265625,-983.3984375,-960.44921875,-1000.0,-764.6484375
1578460433.1102657,-989.2578125,-999.0234375,-817.3828125,-394.53125,-720.703125
1578460433.1102657,-991.2109375,-1000.0,-755.859375,-853.02734375,403.80859375
1578460433.1102657,-995.60546875,-990.234375,-971.19140625,209.47265625,42.48046875
1578460433.1102657,-990.234375,-974.609375,-1000.0,-1000.0,-1000.0
1578460433.1102657,-990.72265625,-977.5390625,-978.02734375,-1000.0,-800.78125
1578460433.1102657,-992.1875,-987.79296875,-996.58203125,-17.08984375,-655.2734375
1578460433.1571407,-988.76953125,-987.79296875,-1000.0,702.1484375,-968.75
1578460433.1571407,-988.28125,-976.5625,-1000.0,-676.26953125,-1000.0
1578460433.1571407,-990.234375,-974.609375,-983.88671875,-1000.0,-631.8359375
1578460433.1571407,-991.69921875,-985.83984375,-984.86328125,-372.55859375,-211.9140625
1578460433.1571407,-989.2578125,-992.1875,-1000.0,-929.19921875,-686.03515625
1578460433.1571407,-986.81640625,-975.09765625,-972.16796875,200.68359375,-955.56640625
1578460433.1571407,-988.76953125,-973.14453125,-677.24609375,-1000.0,62.98828125
1578460433.1571407,-993.65234375,-987.79296875,-729.4921875,-389.16015625,512.20703125
1578460433.1571407,-992.67578125,-985.83984375,-1000.0,-997.0703125,-858.88671875
1578460433.1571407,-987.3046875,-983.88671875,-988.76953125,103.02734375,-1000.0
1578460433.1571407,-988.28125,-974.609375,-935.05859375,-1000.0,-828.125
1578460433.1571407,-992.67578125,-975.5859375,-982.421875,-1000.0,-946.77734375
1578460433.2040157,-992.1875,-994.62890625,-1000.0,193.359375,-1000.0
1578460433.2040157,-986.328125,-990.234375,-979.00390625,762.20703125,-972.16796875
1578460433.2040157,-987.3046875,-975.5859375,-970.21484375,-655.2734375,-871.58203125
1578460433.2040157,-989.74609375,-986.328125,-991.69921875,-1000.0,-965.33203125
1578460433.2040157,-991.2109375,-999.0234375,-1000.0,-161.1328125,-986.81640625
1578460433.2040157,-986.81640625,-1000.0,-929.6875,-851.5625,-486.328125
1578460433.2040157,-986.328125,-997.0703125,-797.8515625,81.0546875,505.37109375
1578460433.2040157,-993.65234375,-988.76953125,-937.98828125,-1000.0,105.46875
1578460433.2040157,-991.2109375,-995.60546875,-1000.0,-382.8125,-1000.0
1578460433.2040157,-984.86328125,-1000.0,-894.53125,-917.96875,-888.671875
1578460433.2040157,-988.76953125,-994.140625,-850.09765625,116.69921875,-620.60546875
1578460433.2040157,-991.69921875,-984.86328125,-1000.0,-1000.0,-948.73046875
1578460433.2508907,-988.76953125,-992.67578125,-1000.0,-704.1015625,-1000.0
1578460433.2508907,-988.76953125,-1000.0,-994.62890625,842.7734375,-673.828125
1578460433.2508907,-989.74609375,-991.2109375,-999.51171875,278.80859375,-544.43359375
1578460433.2508907,-990.234375,-981.4453125,-1000.0,-1000.0,-995.1171875
