timestamp,eeg1,eeg2,eeg3,eeg4,eeg5(aux)
1575789706.5267682,0.0,0.0,0.0,-0.48828125,0.0
1575789706.5267682,0.0,0.0,0.0,-0.48828125,0.0
1575789706.5267682,-24.4140625,-20.01953125,-33.69140625,40.0390625,0.0
1575789706.5267682,52.734375,41.015625,76.66015625,-140.625,0.0
1575789706.5267682,-298.33984375,-236.81640625,-391.11328125,505.37109375,0.0
1575789706.5267682,-784.1796875,-659.1796875,-1000.0,472.65625,0.0
1575789706.5267682,-752.9296875,-694.3359375,-665.52734375,-1000.0,0.0
1575789706.5267682,-744.62890625,-691.40625,-393.5546875,-792.48046875,0.0
1575789706.5267682,-752.44140625,-651.85546875,-772.94921875,830.078125,0.0
1575789706.5267682,-754.39453125,-637.6953125,-1000.0,915.0390625,0.0
1575789706.5267682,-760.25390625,-680.17578125,-788.57421875,-606.4453125,0.0
1575789706.5267682,-755.37109375,-698.2421875,-375.9765625,-1000.0,0.0
1575789706.5736432,-751.953125,-653.3203125,-666.015625,104.98046875,-0.48828125
1575789706.5736432,-754.8828125,-624.0234375,-1000.0,-789.55078125,-0.48828125
1575789706.5736432,-758.30078125,-669.43359375,-888.671875,39.0625,37.59765625
1575789706.5736432,-756.8359375,-698.73046875,-412.59765625,-1000.0,-123.046875
1575789706.5736432,-752.9296875,-662.59765625,-551.26953125,-244.140625,457.51953125
1575789706.5736432,-750.48828125,-621.09375,-1000.0,-815.91796875,645.99609375
1575789706.5736432,-756.8359375,-645.01953125,-957.51953125,240.234375,-764.16015625
1575789706.5736432,-756.8359375,-700.68359375,-380.37109375,-1000.0,-974.12109375
1575789706.5736432,-754.8828125,-680.17578125,-285.64453125,-441.89453125,288.0859375
1575789706.5736432,-753.90625,-617.1875,-902.34375,-881.34765625,761.71875
1575789706.5736432,-752.9296875,-623.53515625,-1000.0,537.109375,-423.33984375
1575789706.5736432,-756.8359375,-679.6875,-646.484375,-1000.0,-1000.0
1575789706.6205182,-756.34765625,-680.6640625,-441.40625,-922.8515625,-259.27734375
1575789706.6205182,-751.953125,-630.37109375,-827.1484375,602.5390625,714.35546875
1575789706.6205182,-750.9765625,-628.41796875,-1000.0,-927.734375,-64.94140625
1575789706.6205182,-756.34765625,-681.640625,-778.3203125,-378.41796875,-1000.0
1575789706.6205182,-756.8359375,-706.0546875,-423.33984375,-1000.0,-760.25390625
1575789706.6205182,-751.953125,-665.0390625,-678.22265625,-11.23046875,674.8046875
1575789706.6205182,-750.0,-640.13671875,-1000.0,-783.69140625,553.7109375
1575789706.6205182,-755.859375,-688.4765625,-764.16015625,183.10546875,-310.05859375
1575789706.6205182,-760.25390625,-713.8671875,-306.640625,-1000.0,-224.12109375
1575789706.6205182,-754.39453125,-678.22265625,-572.75390625,-261.23046875,71.77734375
1575789706.6205182,-752.44140625,-644.53125,-983.88671875,-809.5703125,400.87890625
1575789706.6205182,-757.8125,-663.0859375,-1000.0,240.234375,-535.15625
1575789706.6673932,-758.30078125,-704.1015625,-641.6015625,-1000.0,-1000.0
1575789706.6673932,-753.90625,-694.82421875,-532.71484375,-540.52734375,-480.46875
1575789706.6673932,-750.48828125,-651.85546875,-908.203125,-945.80078125,620.60546875
1575789706.6673932,-754.39453125,-655.2734375,-1000.0,660.15625,-51.26953125
1575789706.6673932,-759.765625,-698.73046875,-755.859375,-922.8515625,-1000.0
1575789706.6673932,-756.34765625,-701.66015625,-414.55078125,-1000.0,-416.50390625
1575789706.6673932,-750.9765625,-670.8984375,-707.51953125,401.3671875,873.046875
1575789706.6673932,-754.39453125,-660.15625,-1000.0,-824.70703125,-968.75
1575789706.6673932,-759.27734375,-686.03515625,-878.90625,-156.25,-331.54296875
1575789706.6673932,-756.34765625,-704.1015625,-497.55859375,-1000.0,-945.3125
1575789706.6673932,-753.90625,-666.50390625,-675.78125,-129.8828125,576.171875
1575789706.6673932,-752.9296875,-634.27734375,-1000.0,-793.45703125,293.9453125
1575789706.7142682,-757.32421875,-671.875,-938.96484375,219.7265625,-1000.0
1575789706.7142682,-758.30078125,-711.42578125,-520.5078125,-1000.0,-1000.0
1575789706.7142682,-754.39453125,-682.12890625,-541.9921875,-269.04296875,68.359375
1575789706.7142682,-750.48828125,-640.13671875,-971.19140625,-809.08203125,651.3671875
1575789706.7142682,-753.41796875,-656.25,-1000.0,349.12109375,-724.609375
1575789706.7142682,-756.8359375,-698.73046875,-595.703125,-1000.0,-1000.0
1575789706.7142682,-753.41796875,-694.82421875,-306.640625,-644.04296875,55.17578125
1575789706.7142682,-754.39453125,-640.13671875,-771.484375,962.890625,884.27734375
1575789706.7142682,-755.37109375,-630.37109375,-1000.0,838.37890625,-390.625
1575789706.7142682,-756.34765625,-682.12890625,-727.05078125,-693.84765625,-1000.0
1575789706.7142682,-756.34765625,-688.4765625,-361.81640625,-1000.0,-590.8203125
1575789706.7142682,-752.9296875,-636.71875,-730.46875,211.42578125,676.26953125
1575789706.7611432,-751.953125,-620.1171875,-1000.0,-792.48046875,162.59765625
1575789706.7611432,-755.859375,-666.50390625,-830.078125,-29.78515625,-1000.0
1575789706.7611432,-756.8359375,-694.82421875,-383.7890625,-1000.0,-912.109375
1575789706.7611432,-753.41796875,-657.2265625,-611.328125,-237.79296875,124.0234375
1575789706.7611432,-750.0,-620.1171875,-1000.0,-816.40625,296.875
1575789706.7611432,-752.9296875,-656.25,-902.83203125,238.28125,-804.6875
1575789706.7611432,-756.34765625,-696.2890625,-427.24609375,-1000.0,-435.546875
1575789706.7611432,-753.90625,-672.36328125,-492.1875,-362.3046875,339.35546875
1575789706.7611432,-751.953125,-618.65234375,-990.234375,-844.7265625,282.71484375
1575789706.7611432,-754.39453125,-634.765625,-930.17578125,465.8203125,-564.94140625
1575789706.7611432,-758.30078125,-687.01171875,-509.765625,-1000.0,-1000.0
1575789706.7611432,-757.8125,-675.78125,-466.30859375,-795.41015625,-485.83984375
1575789706.8080182,-751.953125,-638.18359375,-844.23828125,779.78515625,375.0
1575789706.8080182,-752.44140625,-635.25390625,-1000.0,988.28125,-169.43359375
1575789706.8080182,-757.8125,-678.22265625,-811.03515625,-491.2109375,-1000.0
1575789706.8080182,-755.37109375,-694.3359375,-464.35546875,-1000.0,-873.53515625
1575789706.8080182,-751.46484375,-652.34375,-729.98046875,77.1484375,213.8671875
1575789706.8080182,-751.46484375,-630.859375,-1000.0,-840.8203125,551.7578125
1575789706.8080182,-756.8359375,-671.875,-863.28125,11.23046875,-631.8359375
1575789706.8080182,-758.30078125,-701.171875,-414.55078125,-1000.0,-1000.0
1575789706.8080182,-751.46484375,-664.55078125,-538.0859375,-250.9765625,-150.390625
1575789706.8080182,-749.51171875,-627.9296875,-960.9375,-814.94140625,987.79296875
1575789706.8080182,-758.7890625,-645.01953125,-994.62890625,240.234375,26.85546875
1575789706.8080182,-757.8125,-680.6640625,-629.39453125,-1000.0,-1000.0
1575789706.8548932,-753.90625,-671.875,-512.20703125,-466.796875,-320.80078125
1575789706.8548932,-754.8828125,-625.48828125,-889.16015625,-897.94921875,629.39453125
1575789706.8548932,-757.32421875,-619.62890625,-1000.0,592.28515625,-425.78125
1575789706.8548932,-757.8125,-665.52734375,-742.1875,-998.53515625,-1000.0
1575789706.8548932,-755.37109375,-675.29296875,-419.43359375,-938.4765625,-459.47265625
1575789706.8548932,-752.9296875,-629.8828125,-747.55859375,562.5,942.87109375
1575789706.8548932,-754.39453125,-616.69921875,-1000.0,-865.72265625,268.06640625
1575789706.8548932,-758.7890625,-669.43359375,-859.86328125,-252.44140625,-1000.0
1575789706.8548932,-755.37109375,-703.61328125,-341.796875,-1000.0,-626.953125
1575789706.8548932,-752.44140625,-671.875,-521.484375,-69.3359375,908.203125
1575789706.8548932,-755.859375,-631.34765625,-1000.0,-787.59765625,181.640625
1575789706.8548932,-756.34765625,-661.62109375,-924.8046875,213.8671875,-1000.0
1575789706.9017682,-755.37109375,-701.66015625,-475.5859375,-1000.0,-856.4453125
1575789706.9017682,-754.8828125,-679.6875,-593.75,-272.94921875,120.1171875
1575789706.9017682,-752.44140625,-646.97265625,-1000.0,-785.15625,267.578125
1575789706.9017682,-754.8828125,-668.9453125,-977.5390625,229.4921875,-790.0390625
1575789706.9017682,-757.32421875,-708.0078125,-577.1484375,-1000.0,-1000.0
1575789706.9017682,-754.8828125,-697.75390625,-473.6328125,-283.203125,61.5234375
1575789706.9017682,-751.953125,-651.3671875,-880.859375,-995.60546875,-962.890625
1575789706.9017682,-751.46484375,-646.484375,-1000.0,750.48828125,-335.9375
1575789706.9017682,-756.34765625,-698.73046875,-566.89453125,-849.609375,-699.21875
1575789706.9017682,-761.23046875,-700.68359375,-357.91015625,-982.91015625,357.421875
1575789706.9017682,-752.9296875,-645.99609375,-844.23828125,524.90234375,447.75390625
1575789706.9017682,-750.48828125,-637.20703125,-1000.0,-835.44921875,-278.80859375
1575789706.9486432,-757.8125,-680.6640625,-860.83984375,-125.9765625,-1000.0
1575789706.9486432,-756.8359375,-702.1484375,-505.859375,-1000.0,-969.23828125
1575789706.9486432,-753.41796875,-666.015625,-703.125,-196.2890625,-39.0625
1575789706.9486432,-752.44140625,-634.27734375,-1000.0,-808.59375,210.9375
1575789706.9486432,-758.30078125,-666.015625,-931.640625,229.00390625,-785.15625
1575789706.9486432,-759.765625,-707.03125,-481.4453125,-1000.0,-837.890625
1575789706.9486432,-753.90625,-691.89453125,-502.44140625,-270.01953125,291.015625
1575789706.9486432,-750.9765625,-651.3671875,-951.66015625,-811.03515625,957.51953125
1575789706.9486432,-757.8125,-658.69140625,-1000.0,408.203125,380.859375
1575789706.9486432,-761.71875,-700.1953125,-672.8515625,-1000.0,-883.30078125
1575789706.9486432,-754.8828125,-701.171875,-520.5078125,-677.24609375,-521.484375
1575789706.9486432,-750.0,-658.69140625,-854.98046875,925.78125,884.27734375
1575789706.9955182,-753.90625,-652.34375,-1000.0,898.92578125,-28.80859375
1575789706.9955182,-757.32421875,-697.75390625,-779.296875,-607.421875,-1000.0
1575789706.9955182,-755.859375,-712.40234375,-395.99609375,-1000.0,-805.17578125
1575789706.9955182,-753.41796875,-667.96875,-699.21875,149.4140625,494.62890625
1575789706.9955182,-751.46484375,-643.5546875,-1000.0,-792.96875,134.765625
1575789706.9955182,-754.39453125,-685.05859375,-842.28515625,-10.7421875,-1000.0
1575789706.9955182,-755.37109375,-709.9609375,-373.046875,-1000.0,-830.078125
1575789706.9955182,-753.41796875,-673.828125,-458.49609375,-238.76953125,549.31640625
1575789706.9955182,-754.8828125,-627.44140625,-934.5703125,-815.91796875,508.7890625
1575789706.9955182,-756.34765625,-652.83203125,-1000.0,238.76953125,-925.29296875
1575789706.9955182,-754.8828125,-704.1015625,-545.8984375,-1000.0,-1000.0
1575789706.9955182,-754.8828125,-683.10546875,-495.60546875,-380.37109375,-58.59375
1575789707.0423932,-753.41796875,-631.34765625,-955.56640625,-854.98046875,472.65625
1575789707.0423932,-754.8828125,-638.18359375,-1000.0,518.5546875,-623.53515625
1575789707.0423932,-757.32421875,-687.5,-658.69140625,-1000.0,-1000.0
1575789707.0423932,-755.37109375,-688.4765625,-418.9453125,-858.3984375,-464.84375
1575789707.0423932,-750.48828125,-640.625,-816.89453125,697.75390625,500.48828125
1575789707.0423932,-751.953125,-635.7421875,-1000.0,-964.84375,-73.73046875
1575789707.0423932,-756.8359375,-695.80078125,-697.265625,-426.26953125,-1000.0
1575789707.0423932,-756.8359375,-713.8671875,-250.9765625,-1000.0,15.625
1575789707.0423932,-755.37109375,-656.73828125,-701.171875,10.25390625,948.2421875
1575789707.0423932,-751.953125,-625.0,-1000.0,-785.15625,-195.3125
1575789707.0423932,-755.37109375,-671.875,-881.8359375,155.2734375,-1000.0
1575789707.0423932,-757.32421875,-706.54296875,-502.9296875,-1000.0,-1000.0
1575789707.0892682,-754.39453125,-670.8984375,-641.6015625,-257.8125,-208.49609375
1575789707.0892682,-751.46484375,-635.25390625,-1000.0,-809.08203125,132.8125
1575789707.0892682,-755.37109375,-659.1796875,-974.12109375,239.2578125,-833.984375
1575789707.0892682,-759.27734375,-701.171875,-603.02734375,-1000.0,-1000.0
1575789707.0892682,-754.8828125,-690.91796875,-532.2265625,-480.46875,-158.69140625
1575789707.0892682,-750.9765625,-643.06640625,-923.828125,-907.71484375,899.4140625
1575789707.0892682,-753.41796875,-647.4609375,-982.421875,624.0234375,464.35546875
1575789707.0892682,-759.27734375,-687.01171875,-614.2578125,-958.984375,-423.828125
1575789707.0892682,-758.30078125,-684.08203125,-465.8203125,-1000.0,-771.97265625
1575789707.0892682,-751.46484375,-634.27734375,-824.70703125,468.75,301.7578125
1575789707.0892682,-753.41796875,-616.2109375,-1000.0,-848.6328125,-39.0625
1575789707.0892682,-761.71875,-658.203125,-845.21484375,-223.14453125,-1000.0
1575789707.1361432,-757.32421875,-680.17578125,-479.98046875,-1000.0,-998.046875
1575789707.1361432,-751.953125,-647.94921875,-684.08203125,-121.58203125,264.6484375
1575789707.1361432,-753.41796875,-615.72265625,-1000.0,-789.0625,443.84765625
1575789707.1361432,-758.30078125,-648.92578125,-929.19921875,201.171875,-951.171875
1575789707.1361432,-756.34765625,-678.7109375,-523.92578125,-1000.0,-1000.0
1575789707.1361432,-750.9765625,-663.57421875,-470.703125,-179.6875,210.44921875
1575789707.1361432,-753.41796875,-631.8359375,-882.8125,-818.84765625,924.8046875
1575789707.1361432,-761.23046875,-635.7421875,-1000.0,323.2421875,-351.5625
1575789707.1361432,-759.27734375,-680.17578125,-653.3203125,-1000.0,-1000.0
1575789707.1361432,-752.9296875,-687.5,-362.3046875,-621.09375,-258.7890625
1575789707.1361432,-751.953125,-645.99609375,-740.72265625,994.140625,776.3671875
1575789707.1361432,-756.34765625,-639.16015625,-1000.0,770.01953125,-369.140625
1575789707.1830182,-758.30078125,-688.96484375,-768.5546875,-774.90234375,-1000.0
1575789707.1830182,-755.37109375,-692.87109375,-410.64453125,-1000.0,-419.43359375
1575789707.1830182,-752.9296875,-645.5078125,-745.60546875,218.26171875,726.07421875
1575789707.1830182,-752.9296875,-630.859375,-1000.0,-807.12890625,-99.609375
1575789707.1830182,-755.37109375,-673.33984375,-851.07421875,-97.65625,-1000.0
1575789707.1830182,-756.8359375,-703.61328125,-378.41796875,-1000.0,-238.76953125
1575789707.1830182,-753.41796875,-670.41015625,-582.03125,-230.46875,-883.7890625
1575789707.1830182,-752.44140625,-630.859375,-1000.0,-818.359375,342.7734375
1575789707.1830182,-756.34765625,-670.8984375,-917.48046875,236.328125,-1000.0
1575789707.1830182,-756.8359375,-710.9375,-463.8671875,-1000.0,-475.5859375
1575789707.1830182,-757.32421875,-675.78125,-549.31640625,-319.3359375,851.5625
1575789707.1830182,-752.9296875,-634.765625,-996.58203125,-828.61328125,554.6875
1575789707.2298932,-749.51171875,-655.76171875,-966.796875,436.03515625,-665.52734375
1575789707.2298932,-756.8359375,-704.1015625,-483.3984375,-1000.0,-1000.0
1575789707.2298932,-759.765625,-692.3828125,-416.015625,-778.80859375,-572.265625
1575789707.2298932,-752.9296875,-643.06640625,-868.65234375,813.96484375,285.15625
1575789707.2298932,-752.9296875,-643.06640625,-1000.0,935.546875,-335.44921875
1575789707.2298932,-759.27734375,-693.84765625,-709.9609375,-576.66015625,-1000.0
1575789707.2298932,-756.8359375,-712.40234375,-359.375,-1000.0,-559.08203125
1575789707.2298932,-752.44140625,-669.43359375,-720.703125,102.05078125,437.98828125
1575789707.2298932,-749.51171875,-648.92578125,-1000.0,-784.66796875,175.29296875
1575789707.2298932,-756.34765625,-691.40625,-783.203125,68.359375,-691.40625
1575789707.2298932,-759.765625,-708.0078125,-449.70703125,-1000.0,-1000.0
1575789707.2298932,-751.46484375,-673.828125,-660.15625,-248.046875,-191.40625
1575789707.2767682,-751.46484375,-641.11328125,-1000.0,-812.5,898.92578125
1575789707.2767682,-758.30078125,-666.9921875,-982.421875,239.2578125,212.890625
1575789707.2767682,-758.7890625,-708.49609375,-602.05078125,-1000.0,-1000.0
1575789707.2767682,-755.859375,-693.359375,-495.1171875,-422.36328125,-501.953125
1575789707.2767682,-752.9296875,-645.5078125,-892.578125,-874.0234375,793.45703125
1575789707.2767682,-753.90625,-646.484375,-1000.0,541.50390625,-9.27734375
1575789707.2767682,-759.27734375,-693.359375,-653.80859375,-1000.0,-1000.0
1575789707.2767682,-756.34765625,-698.73046875,-368.1640625,-897.4609375,-708.0078125
1575789707.2767682,-751.953125,-659.66796875,-699.21875,624.0234375,732.91015625
1575789707.2767682,-755.859375,-638.18359375,-1000.0,-905.76171875,329.58984375
1575789707.2767682,-758.30078125,-671.38671875,-864.74609375,-328.125,-1000.0
1575789707.2767682,-755.37109375,-697.265625,-456.54296875,-1000.0,-857.91015625
1575789707.3236432,-755.859375,-658.69140625,-681.640625,-13.18359375,489.74609375
1575789707.3236432,-754.8828125,-618.65234375,-1000.0,-781.25,137.6953125
1575789707.3236432,-754.8828125,-644.04296875,-929.6875,190.91796875,-1000.0
1575789707.3236432,-757.32421875,-683.59375,-488.28125,-1000.0,-894.04296875
1575789707.3236432,-754.8828125,-655.2734375,-572.75390625,-262.20703125,332.03125
1575789707.3236432,-750.9765625,-607.421875,-1000.0,-809.5703125,826.66015625
1575789707.3236432,-756.8359375,-626.953125,-992.67578125,240.234375,-501.46484375
1575789707.3236432,-757.32421875,-676.26953125,-452.63671875,-1000.0,-1000.0
1575789707.3236432,-754.8828125,-673.828125,-293.45703125,-560.05859375,425.29296875
1575789707.3236432,-753.90625,-622.0703125,-880.859375,-952.1484375,774.4140625
1575789707.3236432,-752.9296875,-625.0,-1000.0,649.90234375,-604.00390625
1575789707.3236432,-757.32421875,-685.546875,-706.54296875,-938.4765625,-1000.0
1575789707.3705182,-756.34765625,-693.84765625,-451.171875,-1000.0,-621.58203125
1575789707.3705182,-753.41796875,-642.08984375,-805.6640625,400.87890625,250.9765625
1575789707.3705182,-751.46484375,-625.48828125,-1000.0,-830.078125,-230.46875
1575789707.3705182,-755.37109375,-671.38671875,-812.01171875,-165.0390625,-1000.0
1575789707.3705182,-758.30078125,-704.1015625,-430.6640625,-1000.0,-917.96875
1575789707.3705182,-753.41796875,-671.38671875,-644.04296875,-167.48046875,450.68359375
1575789707.3705182,-750.9765625,-627.44140625,-1000.0,-804.19921875,616.69921875
1575789707.3705182,-757.32421875,-670.41015625,-813.4765625,225.5859375,-381.34765625
1575789707.3705182,-761.71875,-708.984375,-374.0234375,-1000.0,-581.0546875
1575789707.3705182,-757.8125,-674.8046875,-548.828125,-267.578125,-282.2265625
1575789707.3705182,-753.41796875,-637.20703125,-959.47265625,-808.59375,239.2578125
1575789707.3705182,-756.34765625,-648.4375,-1000.0,339.35546875,-567.3828125
1575789707.4173932,-757.8125,-692.3828125,-681.15234375,-1000.0,-1000.0
1575789707.4173932,-755.37109375,-688.4765625,-518.5546875,-648.92578125,-616.69921875
1575789707.4173932,-752.44140625,-641.11328125,-877.9296875,953.125,455.078125
1575789707.4173932,-754.39453125,-643.06640625,-1000.0,854.98046875,-36.1328125
1575789707.4173932,-759.765625,-694.82421875,-792.48046875,-675.78125,-1000.0
1575789707.4173932,-757.8125,-710.9375,-413.57421875,-1000.0,-559.08203125
1575789707.4173932,-751.953125,-678.22265625,-662.109375,210.44921875,835.9375
1575789707.4173932,-754.39453125,-665.52734375,-1000.0,-790.0390625,907.2265625
1575789707.4173932,-758.7890625,-696.77734375,-903.80859375,-18.5546875,-559.5703125
1575789707.4173932,-755.859375,-723.14453125,-511.23046875,-1000.0,-1000.0
1575789707.4173932,-752.44140625,-696.2890625,-648.92578125,-238.76953125,427.734375
1575789707.4173932,-751.46484375,-662.109375,-1000.0,-815.4296875,343.26171875
1575789707.4642682,-759.765625,-685.546875,-974.609375,237.79296875,-963.37890625
1575789707.4642682,-759.765625,-729.98046875,-568.84765625,-1000.0,-1000.0
1575789707.4642682,-755.37109375,-715.8203125,-521.97265625,-355.46875,-27.83203125
1575789707.4642682,-752.44140625,-663.0859375,-947.265625,-843.75,695.80078125
1575789707.4642682,-753.90625,-665.0390625,-1000.0,479.4921875,-638.18359375
1575789707.4642682,-757.8125,-715.8203125,-636.23046875,-1000.0,-1000.0
1575789707.4642682,-754.8828125,-723.6328125,-299.31640625,-795.8984375,29.78515625
1575789707.4642682,-755.37109375,-666.50390625,-738.76953125,773.92578125,918.45703125
1575789707.4642682,-755.37109375,-642.578125,-1000.0,-989.74609375,-339.84375
1575789707.4642682,-755.37109375,-690.4296875,-767.08984375,-461.9140625,-1000.0
1575789707.4642682,-755.859375,-713.37890625,-401.3671875,-1000.0,-719.7265625
1575789707.4642682,-753.90625,-671.38671875,-744.62890625,74.21875,601.5625
1575789707.5111432,-751.46484375,-644.04296875,-1000.0,-781.25,298.828125
1575789707.5111432,-755.37109375,-688.4765625,-856.93359375,97.65625,-1000.0
1575789707.5111432,-758.30078125,-723.6328125,-410.15625,-1000.0,-1000.0
1575789707.5111432,-755.37109375,-684.08203125,-594.7265625,-250.9765625,-20.01953125
1575789707.5111432,-750.48828125,-635.7421875,-1000.0,-812.5,333.0078125
1575789707.5111432,-753.41796875,-666.9921875,-911.62109375,240.234375,-756.8359375
1575789707.5111432,-758.7890625,-713.8671875,-436.5234375,-1000.0,-562.01171875
1575789707.5111432,-758.30078125,-692.87109375,-472.16796875,-467.7734375,158.69140625
1575789707.5111432,-753.41796875,-639.16015625,-964.35546875,-900.87890625,299.31640625
1575789707.5111432,-752.44140625,-650.87890625,-953.61328125,612.3046875,-445.80078125
1575789707.5111432,-758.7890625,-699.70703125,-556.640625,-986.81640625,-1000.0
1575789707.5111432,-761.23046875,-687.98828125,-464.35546875,-940.4296875,-689.94140625
1575789707.5580182,-753.41796875,-645.01953125,-823.73046875,562.5,292.48046875
1575789707.5580182,-751.953125,-630.859375,-1000.0,-858.88671875,-15.13671875
1575789707.5580182,-757.32421875,-671.875,-843.75,-235.83984375,-969.23828125
1575789707.5580182,-756.34765625,-699.21875,-481.93359375,-1000.0,-940.4296875
1575789707.5580182,-751.953125,-671.875,-712.890625,-58.10546875,162.59765625
1575789707.5580182,-750.9765625,-646.97265625,-1000.0,-844.7265625,721.19140625
1575789707.5580182,-756.8359375,-676.26953125,-873.53515625,126.46484375,-468.75
1575789707.5580182,-760.25390625,-708.0078125,-448.73046875,-1000.0,-1000.0
1575789707.5580182,-753.41796875,-693.359375,-526.3671875,-266.11328125,-225.5859375
1575789707.5580182,-750.0,-663.57421875,-945.80078125,-810.05859375,998.046875
1575789707.5580182,-758.30078125,-674.8046875,-1000.0,282.2265625,82.03125
1575789707.5580182,-759.27734375,-709.47265625,-645.99609375,-1000.0,-1000.0
1575789707.6048932,-753.41796875,-701.66015625,-494.140625,-560.546875,-410.64453125
1575789707.6048932,-751.953125,-651.3671875,-862.3046875,-970.703125,646.484375
1575789707.6048932,-754.8828125,-641.11328125,-1000.0,743.65234375,-329.58984375
1575789707.6048932,-757.8125,-694.3359375,-786.62109375,-817.3828125,-1000.0
1575789707.6048932,-755.859375,-713.37890625,-426.26953125,-1000.0,-543.9453125
1575789707.6048932,-751.46484375,-670.41015625,-718.75,330.56640625,899.90234375
1575789707.6048932,-752.9296875,-641.6015625,-1000.0,-817.3828125,460.9375
1575789707.6048932,-759.27734375,-673.828125,-881.8359375,-122.55859375,-1000.0
1575789707.6048932,-755.859375,-708.49609375,-349.609375,-1000.0,-738.76953125
1575789707.6048932,-752.9296875,-676.7578125,-491.69921875,-208.984375,822.265625
1575789707.6048932,-755.859375,-625.48828125,-1000.0,-812.5,312.5
1575789707.6048932,-757.8125,-654.296875,-953.61328125,230.95703125,-1000.0
1575789707.6517682,-756.8359375,-691.89453125,-510.7421875,-1000.0,-914.0625
1575789707.6517682,-754.39453125,-668.9453125,-572.75390625,-276.3671875,10.25390625
1575789707.6517682,-752.9296875,-625.0,-996.58203125,-790.0390625,293.9453125
1575789707.6517682,-757.32421875,-641.6015625,-1000.0,362.3046875,-710.9375
1575789707.6517682,-759.765625,-695.80078125,-629.8828125,-998.53515625,-1000.0
1575789707.6517682,-757.8125,-687.98828125,-466.30859375,-407.2265625,-41.015625
1575789707.6517682,-755.37109375,-639.6484375,-851.5625,916.9921875,-945.80078125
1575789707.6517682,-753.41796875,-641.11328125,-1000.0,898.92578125,-229.4921875
1575789707.6517682,-757.8125,-696.77734375,-625.0,-616.2109375,-762.20703125
1575789707.6517682,-761.71875,-700.1953125,-346.6796875,-1000.0,187.98828125
1575789707.6517682,-753.90625,-652.83203125,-797.36328125,235.3515625,397.4609375
1575789707.6517682,-751.953125,-639.16015625,-1000.0,-802.24609375,-214.84375
1575789707.6986432,-757.8125,-679.19921875,-880.859375,0.48828125,-1000.0
1575789707.6986432,-757.32421875,-706.0546875,-506.8359375,-1000.0,-1000.0
1575789707.6986432,-753.90625,-674.31640625,-667.48046875,-240.234375,-117.67578125
1575789707.6986432,-750.9765625,-641.6015625,-1000.0,-814.94140625,297.8515625
1575789707.6986432,-754.8828125,-667.96875,-958.0078125,238.28125,-690.4296875
1575789707.6986432,-758.30078125,-706.54296875,-500.48828125,-1000.0,-919.43359375
1575789707.6986432,-754.39453125,-691.40625,-453.125,-371.58203125,154.78515625
1575789707.6986432,-750.9765625,-657.71484375,-917.48046875,-852.05078125,975.09765625
1575789707.6986432,-755.37109375,-667.48046875,-1000.0,529.296875,514.6484375
1575789707.6986432,-758.30078125,-707.03125,-698.2421875,-1000.0,-820.80078125
1575789707.6986432,-754.8828125,-712.40234375,-501.46484375,-857.91015625,-597.65625
1575789707.6986432,-753.41796875,-661.62109375,-822.265625,700.1953125,863.28125
1575789707.7455182,-754.39453125,-648.4375,-1000.0,-960.44921875,34.66796875
1575789707.7455182,-758.30078125,-705.56640625,-806.15234375,-417.96875,-1000.0
1575789707.7455182,-758.30078125,-729.98046875,-398.92578125,-1000.0,-863.76953125
1575789707.7455182,-753.90625,-685.05859375,-681.15234375,40.0390625,442.87109375
1575789707.7455182,-751.953125,-656.25,-1000.0,-839.35546875,253.41796875
1575789707.7455182,-756.34765625,-694.82421875,-855.46875,65.4296875,-1000.0
1575789707.7455182,-757.32421875,-722.65625,-421.875,-1000.0,-935.546875
1575789707.7455182,-752.44140625,-697.265625,-436.5234375,-257.8125,404.78515625
1575789707.7455182,-755.37109375,-646.484375,-905.76171875,-812.01171875,590.8203125
1575789707.7455182,-759.765625,-657.2265625,-1000.0,239.74609375,-828.61328125
1575789707.7455182,-757.8125,-713.37890625,-590.33203125,-1000.0,-1000.0
1575789707.7455182,-755.859375,-701.66015625,-484.86328125,-487.3046875,-156.73828125
1575789707.7923932,-753.41796875,-645.01953125,-929.6875,-911.1328125,536.1328125
1575789707.7923932,-753.90625,-652.83203125,-1000.0,625.0,-500.48828125
1575789707.7923932,-756.8359375,-713.37890625,-705.56640625,-958.984375,-1000.0
1575789707.7923932,-756.8359375,-723.6328125,-416.9921875,-1000.0,-545.8984375
1575789707.7923932,-752.44140625,-677.24609375,-785.15625,462.890625,488.76953125
1575789707.7923932,-751.953125,-657.2265625,-1000.0,-843.26171875,136.71875
1575789707.7923932,-754.39453125,-708.984375,-732.91015625,-203.61328125,-1000.0
1575789707.7923932,-757.8125,-735.3515625,-255.859375,-1000.0,-57.12890625
1575789707.7923932,-755.859375,-676.7578125,-667.48046875,-121.09375,973.6328125
1575789707.7923932,-751.953125,-639.16015625,-1000.0,-794.921875,-112.79296875
1575789707.7923932,-760.7421875,-674.31640625,-909.1796875,219.23828125,-997.0703125
1575789707.7923932,-761.23046875,-710.9375,-531.25,-1000.0,-1000.0
1575789707.8392682,-754.39453125,-687.5,-621.09375,-268.5546875,-277.34375
1575789707.8392682,-750.9765625,-641.6015625,-1000.0,-807.6171875,201.171875
1575789707.8392682,-754.39453125,-652.34375,-1000.0,339.35546875,-739.2578125
1575789707.8392682,-758.30078125,-695.3125,-642.578125,-1000.0,-1000.0
1575789707.8392682,-753.41796875,-684.08203125,-494.140625,-611.81640625,-212.40234375
1575789707.8392682,-749.0234375,-636.71875,-876.953125,-997.55859375,889.6484375
1575789707.8392682,-753.41796875,-640.625,-1000.0,768.06640625,550.78125
1575789707.8392682,-760.7421875,-687.5,-648.92578125,-777.34375,-370.1171875
1575789707.8392682,-760.7421875,-688.96484375,-442.87109375,-1000.0,-846.6796875
1575789707.8392682,-752.9296875,-647.94921875,-788.57421875,231.93359375,232.421875
1575789707.8392682,-752.9296875,-626.953125,-1000.0,-804.19921875,33.69140625
1575789707.8392682,-759.765625,-665.52734375,-871.58203125,-76.66015625,-1000.0
1575789707.8861432,-757.32421875,-697.265625,-494.62890625,-1000.0,-1000.0
1575789707.8861432,-751.953125,-659.66796875,-645.5078125,-232.91015625,168.9453125
1575789707.8861432,-752.9296875,-621.58203125,-1000.0,-816.89453125,501.46484375
1575789707.8861432,-759.27734375,-651.3671875,-958.984375,235.83984375,-880.37109375
1575789707.8861432,-758.30078125,-689.94140625,-552.24609375,-1000.0,-1000.0
1575789707.8861432,-751.953125,-677.734375,-434.5703125,-313.4765625,141.11328125
1575789707.8861432,-751.46484375,-635.7421875,-848.14453125,-826.66015625,966.796875
1575789707.8861432,-758.7890625,-637.20703125,-1000.0,435.05859375,-261.71875
1575789707.8861432,-759.27734375,-686.03515625,-695.80078125,-1000.0,-1000.0
1575789707.8861432,-752.9296875,-696.77734375,-351.5625,-776.3671875,-332.03125
1575789707.8861432,-751.953125,-647.94921875,-708.49609375,817.3828125,800.29296875
1575789707.8861432,-755.37109375,-629.8828125,-1000.0,933.59375,-270.99609375
1575789707.9330182,-757.8125,-681.15234375,-796.875,-579.1015625,-1000.0
1575789707.9330182,-756.8359375,-692.3828125,-407.71484375,-1000.0,-492.1875
1575789707.9330182,-753.90625,-646.484375,-710.9375,103.02734375,688.96484375
1575789707.9330182,-751.953125,-627.9296875,-1000.0,-786.1328125,8.30078125
1575789707.9330182,-754.39453125,-670.41015625,-871.58203125,58.59375,-1000.0
1575789707.9330182,-755.37109375,-702.1484375,-381.34765625,-1000.0,-403.3203125
1575789707.9330182,-753.90625,-668.9453125,-529.296875,-246.58203125,-939.94140625
1575789707.9330182,-753.41796875,-620.60546875,-1000.0,-813.4765625,426.26953125
1575789707.9330182,-755.859375,-654.296875,-950.1953125,243.65234375,-1000.0
1575789707.9330182,-757.8125,-714.35546875,-410.64453125,-1000.0,-484.375
1575789707.9330182,-759.27734375,-688.96484375,-452.1484375,-392.08984375,693.84765625
1575789707.9330182,-753.90625,-642.578125,-958.0078125,-982.91015625,404.78515625
1575789707.9798932,-752.9296875,-653.3203125,-988.28125,373.046875,-598.6328125
1575789707.9798932,-758.7890625,-695.3125,-644.53125,-1000.0,-1000.0
1575789707.9798932,-757.8125,-694.82421875,-470.21484375,-904.296875,-649.4140625
1575789707.9798932,-751.953125,-641.6015625,-827.63671875,604.98046875,311.03515625
1575789707.9798932,-750.9765625,-634.765625,-1000.0,-892.578125,-200.1953125
1575789707.9798932,-757.32421875,-686.03515625,-772.4609375,-306.15234375,-1000.0
1575789707.9798932,-757.8125,-708.49609375,-381.34765625,-1000.0,-610.3515625
1575789707.9798932,-752.44140625,-666.9921875,-675.78125,-15.13671875,409.66796875
1575789707.9798932,-750.0,-640.13671875,-1000.0,-779.296875,287.59765625
1575789707.9798932,-757.8125,-682.12890625,-854.98046875,207.03125,-458.49609375
1575789707.9798932,-760.7421875,-707.03125,-485.3515625,-1000.0,-1000.0
1575789707.9798932,-754.39453125,-674.31640625,-597.65625,-264.6484375,-256.34765625
1575789708.0267682,-753.90625,-629.8828125,-983.3984375,-807.6171875,728.515625
1575789708.0267682,-760.25390625,-652.83203125,-1000.0,239.2578125,-299.31640625
1575789708.0267682,-759.765625,-706.0546875,-636.71875,-1000.0,-1000.0
1575789708.0267682,-754.39453125,-701.66015625,-471.19140625,-541.9921875,-492.1875
1575789708.0267682,-752.44140625,-656.25,-861.328125,-951.66015625,765.625
1575789708.0267682,-752.44140625,-658.203125,-1000.0,681.15234375,46.38671875
1575789708.0267682,-757.32421875,-706.54296875,-694.3359375,-900.87890625,-1000.0
1575789708.0267682,-758.30078125,-709.9609375,-366.2109375,-1000.0,-503.90625
1575789708.0267682,-752.9296875,-668.9453125,-675.29296875,402.83203125,917.48046875
1575789708.0267682,-757.32421875,-648.92578125,-1000.0,-826.66015625,345.21484375
1575789708.0267682,-761.71875,-683.59375,-885.7421875,-157.2265625,-1000.0
1575789708.0267682,-757.8125,-700.68359375,-447.265625,-1000.0,-861.81640625
1575789708.0736432,-754.8828125,-654.296875,-636.23046875,-153.3203125,487.79296875
1575789708.0736432,-752.9296875,-618.1640625,-1000.0,-799.8046875,202.63671875
1575789708.0736432,-757.32421875,-658.203125,-950.68359375,223.14453125,-1000.0
1575789708.0736432,-758.30078125,-707.03125,-501.953125,-1000.0,-989.74609375
1575789708.0736432,-755.37109375,-677.734375,-523.4375,-269.04296875,152.34375
1575789708.0736432,-750.9765625,-630.37109375,-973.14453125,-809.5703125,856.93359375
1575789708.0736432,-755.859375,-645.5078125,-1000.0,366.2109375,-390.625
1575789708.0736432,-760.7421875,-704.1015625,-503.41796875,-1000.0,-1000.0
1575789708.0736432,-759.765625,-705.078125,-287.59765625,-653.3203125,285.64453125
1575789708.0736432,-756.34765625,-642.578125,-849.12109375,953.61328125,806.15234375
1575789708.0736432,-752.9296875,-633.7890625,-1000.0,859.375,-544.43359375
1575789708.0736432,-757.32421875,-688.4765625,-753.41796875,-667.48046875,-1000.0
1575789708.1205182,-758.7890625,-707.03125,-465.33203125,-1000.0,-717.7734375
1575789708.1205182,-754.8828125,-654.296875,-782.71484375,202.1484375,163.57421875
1575789708.1205182,-752.44140625,-626.953125,-1000.0,-790.0390625,-183.59375
1575789708.1205182,-756.34765625,-673.828125,-847.65625,-15.13671875,-1000.0
1575789708.1205182,-758.7890625,-701.66015625,-456.0546875,-1000.0,-956.54296875
1575789708.1205182,-752.9296875,-665.52734375,-613.76953125,-239.2578125,382.8125
1575789708.1205182,-751.46484375,-630.37109375,-1000.0,-815.91796875,691.89453125
1575789708.1205182,-756.8359375,-663.57421875,-846.6796875,238.28125,-244.140625
1575789708.1205182,-761.71875,-701.66015625,-382.32421875,-1000.0,-595.21484375
1575789708.1205182,-758.7890625,-672.8515625,-522.94921875,-368.65234375,-385.25390625
1575789708.1205182,-751.46484375,-622.55859375,-954.1015625,-846.19140625,280.2734375
1575789708.1205182,-754.8828125,-644.04296875,-1000.0,457.03125,-482.91015625
1575789708.1673932,-759.765625,-696.77734375,-702.63671875,-1000.0,-1000.0
1575789708.1673932,-756.34765625,-695.80078125,-484.86328125,-811.03515625,-686.5234375
1575789708.1673932,-751.46484375,-654.296875,-846.19140625,756.8359375,440.4296875
1575789708.1673932,-753.90625,-635.7421875,-1000.0,989.74609375,55.6640625
1575789708.1673932,-758.30078125,-683.59375,-810.546875,-490.234375,-1000.0
1575789708.1673932,-755.37109375,-705.56640625,-404.296875,-1000.0,-612.79296875
1575789708.1673932,-750.48828125,-651.85546875,-598.6328125,35.15625,750.9765625
1575789708.1673932,-752.44140625,-620.1171875,-985.83984375,-789.0625,950.1953125
1575789708.1673932,-758.30078125,-653.3203125,-922.36328125,91.30859375,-407.71484375
1575789708.1673932,-756.34765625,-682.12890625,-505.37109375,-1000.0,-1000.0
1575789708.1673932,-753.90625,-653.3203125,-589.84375,-249.0234375,65.4296875
1575789708.1673932,-752.9296875,-618.65234375,-997.0703125,-813.4765625,425.29296875
1575789708.2142682,-756.8359375,-638.671875,-1000.0,240.72265625,-879.39453125
1575789708.2142682,-758.7890625,-681.640625,-591.796875,-1000.0,-1000.0
1575789708.2142682,-754.8828125,-673.33984375,-483.3984375,-468.26171875,-92.28515625
1575789708.2142682,-752.44140625,-619.62890625,-909.66796875,-898.4375,743.65234375
1575789708.2142682,-754.39453125,-625.0,-1000.0,593.26171875,-526.85546875
1575789708.2142682,-757.8125,-681.15234375,-681.640625,-994.62890625,-1000.0
1575789708.2142682,-756.34765625,-692.3828125,-280.2734375,-948.73046875,-63.4765625
1575789708.2142682,-753.90625,-640.13671875,-682.12890625,542.96875,968.26171875
1575789708.2142682,-754.8828125,-619.62890625,-1000.0,-856.4453125,-260.7421875
1575789708.2142682,-757.32421875,-670.8984375,-796.875,-237.3046875,-1000.0
1575789708.2142682,-755.859375,-689.94140625,-393.5546875,-1000.0,-781.73828125
1575789708.2142682,-755.37109375,-645.5078125,-702.1484375,-75.68359375,501.46484375
1575789708.2611432,-754.8828125,-621.58203125,-1000.0,-788.57421875,317.3828125
1575789708.2611432,-757.32421875,-666.50390625,-873.046875,214.35546875,-1000.0
1575789708.2611432,-759.27734375,-710.44921875,-399.4140625,-1000.0,-1000.0
1575789708.2611432,-756.34765625,-684.08203125,-527.34375,-267.578125,-170.41015625
1575789708.2611432,-752.44140625,-640.13671875,-1000.0,-807.12890625,384.765625
1575789708.2611432,-751.953125,-670.8984375,-911.62109375,304.6875,-691.89453125
1575789708.2611432,-759.27734375,-716.30859375,-395.01953125,-1000.0,-504.39453125
1575789708.2611432,-759.27734375,-696.77734375,-390.13671875,-562.5,312.01171875
1575789708.2611432,-751.46484375,-646.97265625,-902.83203125,-974.12109375,344.7265625
1575789708.2611432,-752.44140625,-651.85546875,-973.14453125,766.11328125,-405.2734375
1575789708.2611432,-760.7421875,-703.125,-599.12109375,-787.59765625,-1000.0
1575789708.2611432,-760.25390625,-708.0078125,-414.55078125,-1000.0,-760.7421875
1575789708.3080182,-752.9296875,-661.1328125,-758.30078125,315.91796875,204.1015625
1575789708.3080182,-753.41796875,-642.578125,-1000.0,-816.40625,46.38671875
1575789708.3080182,-759.765625,-683.59375,-849.609375,-122.0703125,-907.2265625
1575789708.3080182,-758.30078125,-704.1015625,-440.4296875,-1000.0,-1000.0
1575789708.3080182,-751.953125,-671.38671875,-631.8359375,-211.42578125,-63.4765625
1575789708.3080182,-749.0234375,-644.53125,-1000.0,-812.5,908.69140625
1575789708.3080182,-755.859375,-673.33984375,-902.34375,230.95703125,-91.30859375
1575789708.3080182,-759.27734375,-711.42578125,-450.68359375,-1000.0,-1000.0
1575789708.3080182,-754.39453125,-691.40625,-487.79296875,-269.04296875,-364.2578125
1575789708.3080182,-752.9296875,-648.4375,-895.01953125,-810.546875,841.796875
1575789708.3080182,-762.20703125,-649.4140625,-1000.0,397.94921875,-94.23828125
1575789708.3080182,-761.23046875,-681.640625,-678.22265625,-1000.0,-1000.0
1575789708.3548932,-754.39453125,-691.40625,-439.453125,-707.03125,-490.234375
1575789708.3548932,-752.9296875,-650.390625,-804.19921875,895.99609375,606.93359375
1575789708.3548932,-754.39453125,-644.04296875,-1000.0,893.06640625,-248.046875
1575789708.3548932,-758.7890625,-694.3359375,-803.22265625,-620.1171875,-1000.0
1575789708.3548932,-755.37109375,-706.54296875,-394.04296875,-1000.0,-628.41796875
1575789708.3548932,-752.9296875,-662.109375,-661.1328125,129.8828125,806.15234375
1575789708.3548932,-753.90625,-641.6015625,-1000.0,-794.43359375,445.3125
1575789708.3548932,-758.7890625,-683.59375,-907.2265625,-9.27734375,-1000.0
1575789708.3548932,-757.32421875,-720.21484375,-360.83984375,-1000.0,-806.640625
1575789708.3548932,-755.37109375,-684.5703125,-450.68359375,-238.76953125,743.1640625
1575789708.3548932,-755.859375,-633.30078125,-1000.0,-816.89453125,335.44921875
1575789708.3548932,-756.34765625,-660.15625,-975.5859375,239.2578125,-1000.0
1575789708.4017682,-757.8125,-707.03125,-528.3203125,-1000.0,-945.3125
1575789708.4017682,-756.34765625,-693.84765625,-528.80859375,-396.97265625,-72.75390625
1575789708.4017682,-752.44140625,-641.11328125,-960.9375,-852.05078125,352.5390625
1575789708.4017682,-754.8828125,-646.97265625,-1000.0,515.13671875,-610.83984375
1575789708.4017682,-759.27734375,-701.66015625,-645.01953125,-1000.0,-1000.0
1575789708.4017682,-756.34765625,-710.44921875,-435.05859375,-638.671875,-124.51171875
1575789708.4017682,-751.953125,-666.015625,-821.77734375,816.89453125,-987.79296875
1575789708.4017682,-752.44140625,-654.296875,-1000.0,-974.12109375,-154.296875
1575789708.4017682,-757.8125,-704.58984375,-661.62109375,-403.3203125,-805.6640625
1575789708.4017682,-761.71875,-711.9140625,-318.359375,-1000.0,31.25
1575789708.4017682,-754.8828125,-664.0625,-732.91015625,7.8125,333.0078125
1575789708.4017682,-750.0,-640.625,-1000.0,-784.66796875,-144.04296875
1575789708.4486432,-758.30078125,-673.828125,-910.15625,149.90234375,-998.046875
1575789708.4486432,-758.7890625,-702.63671875,-528.80859375,-1000.0,-1000.0
1575789708.4486432,-753.90625,-674.31640625,-639.6484375,-256.8359375,-203.61328125
1575789708.4486432,-754.39453125,-626.953125,-1000.0,-810.546875,373.53515625
1575789708.4486432,-760.25390625,-641.6015625,-979.4921875,240.234375,-577.1484375
1575789708.4486432,-759.765625,-691.89453125,-538.57421875,-1000.0,-956.54296875
1575789708.4486432,-754.8828125,-688.96484375,-439.94140625,-504.39453125,95.703125
1575789708.4486432,-752.9296875,-645.99609375,-879.8828125,-919.921875,989.74609375
1575789708.4486432,-757.32421875,-642.08984375,-1000.0,625.9765625,652.83203125
1575789708.4486432,-759.765625,-683.59375,-758.7890625,-953.61328125,-786.1328125
1575789708.4486432,-756.34765625,-690.4296875,-478.02734375,-1000.0,-666.9921875
1575789708.4486432,-752.44140625,-654.78515625,-763.671875,433.59375,916.9921875
1575789708.4955182,-753.90625,-635.25390625,-1000.0,-844.7265625,90.33203125
1575789708.4955182,-759.27734375,-668.9453125,-828.61328125,-221.6796875,-1000.0
1575789708.4955182,-758.30078125,-694.3359375,-416.9921875,-1000.0,-919.43359375
1575789708.4955182,-755.859375,-655.2734375,-657.2265625,-119.62890625,371.58203125
1575789708.4955182,-754.8828125,-616.2109375,-1000.0,-795.8984375,361.328125
1575789708.4955182,-757.32421875,-646.484375,-895.99609375,219.7265625,-966.30859375
1575789708.4955182,-758.30078125,-691.40625,-433.59375,-1000.0,-1000.0
1575789708.4955182,-754.39453125,-675.29296875,-380.37109375,-267.578125,283.203125
1575789708.4955182,-756.34765625,-619.140625,-858.3984375,-808.59375,581.54296875
1575789708.4955182,-760.25390625,-629.39453125,-1000.0,321.2890625,-785.64453125
1575789708.4955182,-758.7890625,-678.7109375,-604.4921875,-1000.0,-1000.0
1575789708.4955182,-755.859375,-664.55078125,-427.24609375,-639.6484375,-21.484375
1575789708.5423932,-753.41796875,-614.74609375,-881.8359375,981.4453125,861.81640625
1575789708.5423932,-755.859375,-622.55859375,-1000.0,773.92578125,-391.11328125
1575789708.5423932,-760.25390625,-677.734375,-730.95703125,-776.85546875,-1000.0
1575789708.5423932,-756.34765625,-686.03515625,-392.578125,-1000.0,-628.41796875
1575789708.5423932,-753.41796875,-643.5546875,-737.3046875,213.8671875,386.23046875
1575789708.5423932,-752.9296875,-622.55859375,-1000.0,-800.29296875,120.60546875
1575789708.5423932,-755.859375,-669.43359375,-763.18359375,-62.5,-1000.0
1575789708.5423932,-760.7421875,-700.1953125,-264.6484375,-1000.0,-92.28515625
1575789708.5423932,-758.30078125,-654.296875,-637.6953125,-234.375,954.1015625
1575789708.5423932,-753.41796875,-615.72265625,-1000.0,-816.40625,-59.5703125
1575789708.5423932,-757.32421875,-649.4140625,-932.12890625,235.83984375,-970.703125
1575789708.5423932,-759.765625,-699.70703125,-553.7109375,-1000.0,-1000.0
1575789708.5892682,-756.34765625,-678.22265625,-584.47265625,-320.3125,-377.9296875
1575789708.5892682,-751.46484375,-632.32421875,-975.5859375,-829.1015625,219.7265625
1575789708.5892682,-754.8828125,-649.90234375,-1000.0,437.01171875,-650.87890625
1575789708.5892682,-761.71875,-704.58984375,-681.15234375,-1000.0,-1000.0
1575789708.5892682,-756.8359375,-701.66015625,-473.14453125,-762.6953125,-238.76953125
1575789708.5892682,-750.9765625,-650.390625,-834.47265625,813.4765625,886.23046875
1575789708.5892682,-754.8828125,-651.3671875,-1000.0,974.12109375,650.87890625
1575789708.5892682,-762.6953125,-698.2421875,-690.91796875,-513.671875,-343.26171875
1575789708.5892682,-760.25390625,-709.47265625,-438.96484375,-1000.0,-932.12890625
1575789708.5892682,-752.44140625,-665.0390625,-760.25390625,100.5859375,159.66796875
1575789708.5892682,-752.9296875,-643.06640625,-1000.0,-781.73828125,116.2109375
1575789708.5892682,-760.7421875,-687.01171875,-895.5078125,79.58984375,-981.4453125
1575789708.6361432,-760.7421875,-707.03125,-509.27734375,-1000.0,-1000.0
1575789708.6361432,-755.37109375,-675.29296875,-610.83984375,-249.51171875,59.08203125
1575789708.6361432,-753.41796875,-641.6015625,-993.1640625,-812.01171875,544.921875
1575789708.6361432,-757.8125,-666.015625,-986.81640625,239.2578125,-791.9921875
1575789708.6361432,-757.8125,-711.42578125,-593.26171875,-1000.0,-1000.0
1575789708.6361432,-752.44140625,-702.1484375,-412.109375,-425.29296875,55.17578125
1575789708.6361432,-752.44140625,-652.83203125,-808.10546875,-876.953125,-991.69921875
1575789708.6361432,-757.8125,-645.99609375,-1000.0,559.08203125,-162.59765625
1575789708.6361432,-759.27734375,-700.68359375,-749.0234375,-1000.0,-1000.0
1575789708.6361432,-753.90625,-717.28515625,-356.4453125,-923.828125,-412.109375
1575789708.6361432,-752.44140625,-663.57421875,-680.17578125,589.84375,816.89453125
1575789708.6361432,-755.37109375,-637.20703125,-1000.0,-890.13671875,-160.64453125
1575789708.6830182,-756.8359375,-686.03515625,-831.54296875,-302.24609375,-1000.0
1575789708.6830182,-756.8359375,-704.58984375,-430.17578125,-1000.0,-568.359375
1575789708.6830182,-755.37109375,-655.2734375,-692.3828125,-35.64453125,629.39453125
1575789708.6830182,-753.41796875,-618.65234375,-1000.0,-783.203125,92.28515625
1575789708.6830182,-755.859375,-657.2265625,-895.5078125,205.078125,-1000.0
1575789708.6830182,-757.32421875,-700.68359375,-402.83203125,-1000.0,-492.1875
1575789708.6830182,-755.859375,-671.875,-496.09375,-263.671875,976.5625
1575789708.6830182,-753.90625,-614.2578125,-991.69921875,-808.59375,627.9296875
1575789708.6830182,-755.37109375,-637.20703125,-987.3046875,240.72265625,-898.92578125
1575789708.6830182,-757.32421875,-697.75390625,-461.42578125,-1000.0,-546.875
1575789708.6830182,-758.30078125,-678.22265625,-429.19921875,-541.9921875,575.1953125
1575789708.6830182,-753.41796875,-627.44140625,-933.59375,-990.72265625,396.484375
1575789708.7298932,-751.46484375,-634.27734375,-1000.0,657.71484375,-513.671875
1575789708.7298932,-756.8359375,-681.15234375,-699.21875,-875.0,-1000.0
1575789708.7298932,-757.8125,-686.5234375,-475.09765625,-1000.0,-725.09765625
1575789708.7298932,-754.39453125,-644.53125,-803.7109375,400.390625,262.20703125
1575789708.7298932,-752.44140625,-634.27734375,-1000.0,-823.2421875,-88.37890625
1575789708.7298932,-756.8359375,-678.22265625,-810.05859375,-138.671875,-1000.0
1575789708.7298932,-757.8125,-702.63671875,-384.765625,-1000.0,-696.2890625
1575789708.7298932,-754.39453125,-666.50390625,-645.5078125,-172.8515625,272.4609375
1575789708.7298932,-751.46484375,-639.16015625,-1000.0,-803.7109375,337.40234375
1575789708.7298932,-757.8125,-671.875,-858.3984375,225.5859375,-348.14453125
1575789708.7298932,-762.6953125,-693.359375,-475.09765625,-1000.0,-1000.0
1575789708.7298932,-755.859375,-669.43359375,-597.65625,-269.04296875,-375.9765625
1575789708.7767682,-751.953125,-631.8359375,-974.609375,-810.05859375,716.796875
1575789708.7767682,-757.8125,-651.85546875,-1000.0,376.953125,-232.91015625
1575789708.7767682,-759.27734375,-700.68359375,-673.33984375,-1000.0,-1000.0
1575789708.7767682,-754.8828125,-695.3125,-441.40625,-654.296875,-597.65625
1575789708.7767682,-752.44140625,-643.06640625,-818.359375,950.68359375,708.49609375
1575789708.7767682,-753.90625,-635.7421875,-1000.0,873.53515625,130.37109375
1575789708.7767682,-759.765625,-678.7109375,-739.74609375,-646.484375,-1000.0
1575789708.7767682,-757.8125,-684.08203125,-367.1875,-1000.0,-799.31640625
1575789708.7767682,-751.46484375,-641.11328125,-690.91796875,195.3125,623.046875
1575789708.7767682,-752.9296875,-613.76953125,-1000.0,-790.0390625,476.07421875
1575789708.7767682,-760.25390625,-658.69140625,-904.78515625,-14.6484375,-1000.0
1575789708.7767682,-757.32421875,-694.82421875,-449.21875,-1000.0,-1000.0
1575789708.8236432,-751.953125,-670.41015625,-467.7734375,-239.2578125,318.359375
1575789708.8236432,-756.8359375,-625.9765625,-964.84375,-815.91796875,282.2265625
1575789708.8236432,-760.25390625,-653.80859375,-1000.0,238.28125,-990.234375
1575789708.8236432,-757.8125,-708.0078125,-530.2734375,-1000.0,-1000.0
1575789708.8236432,-754.39453125,-693.359375,-488.76953125,-370.1171875,25.390625
1575789708.8236432,-751.953125,-644.04296875,-937.01171875,-849.609375,926.26953125
1575789708.8236432,-756.34765625,-645.5078125,-1000.0,502.44140625,-268.06640625
1575789708.8236432,-758.30078125,-706.54296875,-540.0390625,-1000.0,-1000.0
1575789708.8236432,-757.32421875,-713.8671875,-265.13671875,-802.24609375,-139.6484375
1575789708.8236432,-753.90625,-646.97265625,-812.01171875,765.625,522.94921875
1575789708.8236432,-751.953125,-641.11328125,-1000.0,-975.5859375,-428.22265625
1575789708.8236432,-757.32421875,-694.82421875,-772.4609375,-432.6171875,-1000.0
1575789708.8705182,-757.32421875,-708.0078125,-451.171875,-1000.0,197.265625
1575789708.8705182,-754.8828125,-661.62109375,-752.44140625,41.015625,847.16796875
1575789708.8705182,-751.953125,-632.32421875,-1000.0,-784.1796875,-149.4140625
1575789708.8705182,-755.37109375,-673.828125,-878.90625,111.328125,-1000.0
1575789708.8705182,-758.30078125,-705.56640625,-475.09765625,-1000.0,-992.1875
1575789708.8705182,-753.90625,-671.875,-568.84765625,-251.953125,286.1328125
1575789708.8705182,-751.46484375,-626.46484375,-1000.0,-812.01171875,748.046875
1575789708.8705182,-755.859375,-659.1796875,-875.0,240.234375,-148.92578125
1575789708.8705182,-760.25390625,-707.03125,-414.55078125,-1000.0,-660.15625
1575789708.8705182,-757.32421875,-682.12890625,-506.8359375,-467.7734375,-538.57421875
1575789708.8705182,-751.953125,-633.30078125,-931.640625,-900.87890625,283.69140625
1575789708.8705182,-753.90625,-637.6953125,-1000.0,611.81640625,-380.37109375
1575789708.9173932,-758.30078125,-688.96484375,-743.65234375,-980.95703125,-1000.0
1575789708.9173932,-756.34765625,-698.73046875,-481.4453125,-956.54296875,-763.671875
1575789708.9173932,-753.90625,-653.80859375,-812.98828125,538.0859375,397.94921875
1575789708.9173932,-755.37109375,-642.08984375,-1000.0,-856.4453125,145.99609375
1575789708.9173932,-759.765625,-688.96484375,-845.703125,-236.81640625,-1000.0
1575789708.9173932,-757.8125,-720.21484375,-425.78125,-1000.0,-737.79296875
1575789708.9173932,-752.9296875,-688.4765625,-575.1953125,-82.03125,608.88671875
1575789708.9173932,-754.39453125,-653.3203125,-973.6328125,-789.55078125,-996.58203125
1575789708.9173932,-760.7421875,-678.7109375,-954.58984375,215.33203125,-318.84765625
1575789708.9173932,-758.7890625,-719.23828125,-558.10546875,-1000.0,-1000.0
1575789708.9173932,-755.37109375,-699.70703125,-589.84375,-268.06640625,-29.78515625
1575789708.9173932,-753.41796875,-647.94921875,-983.3984375,-807.12890625,517.08984375
1575789708.9642682,-757.32421875,-651.85546875,-1000.0,317.3828125,-776.3671875
1575789708.9642682,-758.7890625,-701.66015625,-642.08984375,-1000.0,-1000.0
1575789708.9642682,-757.8125,-698.73046875,-471.6796875,-572.265625,-166.50390625
1575789708.9642682,-754.39453125,-645.99609375,-878.41796875,-978.02734375,773.4375
1575789708.9642682,-753.41796875,-642.578125,-1000.0,767.08984375,-408.203125
1575789708.9642682,-757.8125,-692.87109375,-724.609375,-788.57421875,-1000.0
1575789708.9642682,-758.30078125,-713.37890625,-279.296875,-1000.0,-157.2265625
1575789708.9642682,-757.32421875,-664.0625,-662.59765625,310.546875,-995.60546875
1575789708.9642682,-756.34765625,-628.41796875,-1000.0,-812.01171875,-157.71484375
1575789708.9642682,-759.765625,-675.29296875,-827.63671875,-99.609375,-1000.0
1575789708.9642682,-759.27734375,-711.42578125,-412.109375,-1000.0,-783.69140625
1575789708.9642682,-756.34765625,-669.43359375,-677.734375,-216.796875,522.4609375
1575789709.0111432,-752.44140625,-632.8125,-1000.0,-812.01171875,325.68359375
1575789709.0111432,-754.8828125,-667.96875,-899.90234375,230.95703125,-979.98046875
1575789709.0111432,-759.27734375,-708.984375,-445.3125,-1000.0,-1000.0
1575789709.0111432,-758.30078125,-680.17578125,-536.1328125,-270.01953125,-253.41796875
1575789709.0111432,-754.39453125,-632.32421875,-1000.0,-811.5234375,413.0859375
1575789709.0111432,-752.44140625,-648.4375,-957.03125,423.828125,-582.03125
1575789709.0111432,-758.7890625,-697.265625,-498.046875,-1000.0,-614.2578125
1575789709.0111432,-760.25390625,-686.5234375,-433.10546875,-724.609375,-40.52734375
1575789709.0111432,-752.44140625,-638.18359375,-891.11328125,880.37109375,299.31640625
1575789709.0111432,-752.44140625,-643.5546875,-998.53515625,905.2734375,-295.8984375
1575789709.0111432,-759.765625,-685.546875,-669.921875,-605.46875,-1000.0
1575789709.0111432,-759.765625,-690.91796875,-437.01171875,-1000.0,-818.359375
1575789709.0580182,-754.8828125,-648.92578125,-747.55859375,117.1875,151.3671875
1575789709.0580182,-752.9296875,-627.44140625,-1000.0,-790.52734375,222.16796875
1575789709.0580182,-758.30078125,-664.0625,-887.20703125,26.3671875,-754.8828125
1575789709.0580182,-760.25390625,-694.3359375,-494.62890625,-1000.0,-1000.0
1575789709.0580182,-753.90625,-679.19921875,-628.90625,-242.67578125,-110.3515625
1575789709.0580182,-750.48828125,-635.25390625,-1000.0,-814.453125,979.00390625
1575789709.0580182,-758.30078125,-649.90234375,-936.03515625,238.76953125,-12.20703125
1575789709.0580182,-761.71875,-703.125,-484.375,-1000.0,-1000.0
1575789709.0580182,-754.8828125,-688.4765625,-425.78125,-393.5546875,-436.03515625
1575789709.0580182,-750.0,-645.5078125,-838.37890625,-860.83984375,856.93359375
1575789709.0580182,-756.8359375,-652.34375,-1000.0,532.71484375,-12.20703125
1575789709.0580182,-760.25390625,-702.1484375,-728.515625,-1000.0,-1000.0
1575789709.1048932,-755.37109375,-710.44921875,-429.6875,-880.37109375,-564.453125
1575789709.1048932,-753.41796875,-660.64453125,-772.4609375,660.15625,627.9296875
1575789709.1048932,-756.34765625,-640.625,-1000.0,-937.5,-135.7421875
1575789709.1048932,-759.27734375,-686.5234375,-836.9140625,-381.8359375,-1000.0
1575789709.1048932,-756.8359375,-709.47265625,-401.3671875,-1000.0,-698.73046875
1575789709.1048932,-753.90625,-663.57421875,-622.0703125,-0.48828125,746.09375
1575789709.1048932,-753.90625,-628.90625,-1000.0,-783.203125,630.859375
1575789709.1048932,-758.30078125,-667.48046875,-915.0390625,171.875,-905.76171875
1575789709.1048932,-757.8125,-713.8671875,-357.421875,-1000.0,-916.015625
1575789709.1048932,-757.8125,-683.10546875,-409.66796875,-259.765625,679.6875
1575789709.1048932,-756.8359375,-625.0,-995.1171875,-809.5703125,484.86328125
1575789709.1048932,-756.34765625,-646.484375,-1000.0,239.74609375,-954.58984375
1575789709.1517682,-758.7890625,-694.3359375,-564.453125,-1000.0,-993.1640625
1575789709.1517682,-755.859375,-677.734375,-513.18359375,-520.5078125,-176.26953125
1575789709.1517682,-752.9296875,-625.9765625,-934.5703125,-929.19921875,373.53515625
1575789709.1517682,-753.90625,-632.8125,-1000.0,632.8125,-510.25390625
1575789709.1517682,-758.7890625,-687.98828125,-683.59375,-951.171875,-1000.0
1575789709.1517682,-761.23046875,-696.77734375,-380.37109375,-1000.0,-289.55078125
1575789709.1517682,-755.859375,-651.3671875,-754.39453125,422.36328125,954.58984375
1575789709.1517682,-752.44140625,-642.08984375,-1000.0,-832.03125,16.6015625
1575789709.1517682,-757.8125,-701.66015625,-705.56640625,-175.78125,-794.921875
1575789709.1517682,-762.20703125,-718.26171875,-326.66015625,-1000.0,-127.44140625
1575789709.1517682,-754.8828125,-675.29296875,-700.68359375,-123.53515625,247.55859375
1575789709.1517682,-751.953125,-647.94921875,-1000.0,-792.96875,-54.6875
1575789709.1986432,-758.7890625,-674.31640625,-934.5703125,219.23828125,-931.15234375
1575789709.1986432,-760.7421875,-711.42578125,-542.48046875,-1000.0,-1000.0
1575789709.1986432,-756.8359375,-694.3359375,-598.6328125,-268.5546875,-325.68359375
1575789709.1986432,-751.953125,-655.76171875,-990.72265625,-808.10546875,362.79296875
1575789709.1986432,-756.8359375,-666.50390625,-1000.0,339.35546875,-470.703125
1575789709.1986432,-760.25390625,-712.890625,-610.3515625,-1000.0,-1000.0
1575789709.1986432,-755.37109375,-707.51953125,-408.203125,-619.62890625,-227.5390625
1575789709.1986432,-751.46484375,-662.59765625,-833.49609375,977.5390625,958.49609375
1575789709.1986432,-755.859375,-658.69140625,-1000.0,830.56640625,739.74609375
1575789709.1986432,-761.23046875,-698.73046875,-786.62109375,-701.171875,-719.23828125
1575789709.1986432,-756.34765625,-711.9140625,-480.46875,-1000.0,-754.39453125
1575789709.1986432,-753.41796875,-672.8515625,-760.25390625,226.5625,828.61328125
1575789709.2455182,-753.41796875,-641.6015625,-1000.0,-792.48046875,145.01953125
1575789709.2455182,-757.32421875,-676.7578125,-853.02734375,-24.90234375,-1000.0
1575789709.2455182,-759.27734375,-708.984375,-452.1484375,-1000.0,-1000.0
1575789709.2455182,-754.8828125,-672.36328125,-645.01953125,-238.28125,262.6953125
1575789709.2455182,-752.9296875,-630.37109375,-1000.0,-812.98828125,421.38671875
1575789709.2455182,-759.27734375,-662.109375,-937.98828125,234.86328125,-947.265625
1575789709.2455182,-762.20703125,-708.984375,-508.7890625,-1000.0,-1000.0
1575789709.2455182,-755.37109375,-701.171875,-379.39453125,-309.08203125,279.78515625
1575789709.2455182,-754.8828125,-646.97265625,-831.0546875,-826.66015625,727.05078125
1575789709.2455182,-761.71875,-643.06640625,-1000.0,456.0546875,-648.4375
1575789709.2455182,-761.71875,-701.171875,-656.73828125,-1000.0,-1000.0
1575789709.2455182,-756.8359375,-699.21875,-416.50390625,-784.66796875,-305.6640625
1575789709.2923932,-754.8828125,-648.4375,-845.703125,795.41015625,664.0625
1575789709.2923932,-754.39453125,-640.625,-1000.0,979.4921875,-162.109375
1575789709.2923932,-757.8125,-693.359375,-766.11328125,-510.25390625,-1000.0
1575789709.2923932,-757.8125,-713.37890625,-390.13671875,-1000.0,-727.05078125
1575789709.2923932,-752.9296875,-665.52734375,-698.2421875,99.12109375,364.2578125
1575789709.2923932,-753.90625,-634.765625,-1000.0,-782.2265625,305.17578125
1575789709.2923932,-757.32421875,-677.24609375,-796.875,76.171875,-1000.0
1575789709.2923932,-758.30078125,-714.84375,-270.99609375,-1000.0,-182.12890625
1575789709.2923932,-758.7890625,-668.9453125,-585.9375,-248.53515625,958.0078125
1575789709.2923932,-752.9296875,-619.140625,-1000.0,-813.96484375,62.98828125
1575789709.2923932,-756.8359375,-647.94921875,-948.73046875,240.72265625,-893.06640625
1575789709.2923932,-760.7421875,-691.89453125,-565.4296875,-1000.0,-1000.0
1575789709.3392682,-755.859375,-677.24609375,-544.921875,-468.26171875,-459.47265625
1575789709.3392682,-751.953125,-633.7890625,-939.94140625,-894.53125,260.25390625
1575789709.3392682,-755.37109375,-638.18359375,-1000.0,559.08203125,-527.83203125
1575789709.3392682,-759.765625,-683.59375,-712.890625,-1000.0,-1000.0
1575789709.3392682,-758.30078125,-691.40625,-454.58984375,-919.921875,-382.32421875
1575789709.3392682,-753.41796875,-646.97265625,-801.26953125,586.42578125,834.9609375
1575789709.3392682,-754.8828125,-645.01953125,-1000.0,-883.30078125,732.91015625
1575789709.3392682,-762.20703125,-692.3828125,-734.375,-287.59765625,-299.31640625
1575789709.3392682,-760.25390625,-700.1953125,-433.59375,-1000.0,-1000.0
1575789709.3392682,-754.39453125,-662.59765625,-725.09765625,-47.36328125,41.9921875
1575789709.3392682,-753.41796875,-636.71875,-1000.0,-785.15625,186.5234375
1575789709.3392682,-758.7890625,-664.0625,-918.9453125,210.9375,-921.875
1575789709.3861432,-757.8125,-697.75390625,-535.15625,-1000.0,-1000.0
1575789709.3861432,-752.9296875,-672.36328125,-575.68359375,-266.11328125,-62.01171875
1575789709.3861432,-752.44140625,-628.90625,-960.9375,-806.640625,554.19921875
1575789709.3861432,-759.27734375,-652.34375,-1000.0,276.85546875,-700.1953125
1575789709.3861432,-760.25390625,-701.171875,-634.765625,-1000.0,-1000.0
1575789709.3861432,-753.41796875,-696.77734375,-398.92578125,-540.52734375,-58.59375
1575789709.3861432,-752.9296875,-642.578125,-775.390625,-962.890625,-955.56640625
1575789709.3861432,-758.30078125,-636.71875,-1000.0,746.58203125,-34.1796875
1575789709.3861432,-759.27734375,-690.91796875,-785.15625,-828.125,-1000.0
1575789709.3861432,-753.41796875,-714.35546875,-356.4453125,-1000.0,-491.69921875
1575789709.3861432,-753.90625,-667.48046875,-661.1328125,402.34375,825.68359375
1575789709.3861432,-758.30078125,-628.41796875,-1000.0,-819.3359375,-53.7109375
1575789709.4330182,-758.30078125,-678.7109375,-861.328125,-127.44140625,-1000.0
1575789709.4330182,-756.8359375,-712.40234375,-437.98828125,-1000.0,-639.6484375
1575789709.4330182,-754.8828125,-673.828125,-659.66796875,-170.8984375,557.12890625
1575789709.4330182,-753.41796875,-635.7421875,-1000.0,-802.24609375,204.58984375
1575789709.4330182,-756.8359375,-666.50390625,-927.24609375,225.09765625,-1000.0
1575789709.4330182,-757.32421875,-713.37890625,-442.87109375,-1000.0,-567.87109375
1575789709.4330182,-755.37109375,-690.91796875,-453.61328125,-270.01953125,899.90234375
1575789709.4330182,-754.39453125,-632.8125,-953.125,-810.546875,645.99609375
1575789709.4330182,-754.8828125,-643.5546875,-1000.0,393.5546875,-823.73046875
1575789709.4330182,-760.7421875,-707.03125,-496.09375,-1000.0,-617.1875
1575789709.4330182,-761.23046875,-697.265625,-394.04296875,-656.73828125,358.88671875
1575789709.4330182,-755.37109375,-637.20703125,-890.13671875,952.1484375,416.9921875
1575789709.4798932,-755.37109375,-645.5078125,-1000.0,873.046875,-385.25390625
1575789709.4798932,-760.25390625,-689.453125,-739.74609375,-637.20703125,-1000.0
1575789709.4798932,-758.30078125,-690.4296875,-462.40234375,-1000.0,-787.109375
1575789709.4798932,-751.953125,-650.390625,-772.94921875,156.25,263.18359375
1575789709.4798932,-751.953125,-630.859375,-1000.0,-792.96875,27.83203125
1575789709.4798932,-758.30078125,-671.875,-844.7265625,-11.23046875,-1000.0
1575789709.4798932,-759.27734375,-710.9375,-407.71484375,-1000.0,-741.69921875
1575789709.4798932,-755.859375,-682.6171875,-594.23828125,-238.76953125,237.3046875
1575789709.4798932,-754.39453125,-644.04296875,-1000.0,-815.91796875,459.9609375
1575789709.4798932,-759.765625,-681.15234375,-921.38671875,238.28125,-192.3828125
1575789709.4798932,-762.6953125,-715.8203125,-547.8515625,-1000.0,-1000.0
1575789709.4798932,-757.8125,-691.89453125,-574.21875,-371.09375,-463.8671875
1575789709.5267682,-752.9296875,-652.83203125,-941.40625,-849.609375,829.1015625
1575789709.5267682,-755.859375,-665.0390625,-1000.0,501.953125,-84.47265625
1575789709.5267682,-759.27734375,-711.42578125,-708.49609375,-1000.0,-1000.0
1575789709.5267682,-756.34765625,-716.796875,-426.26953125,-841.30859375,-667.96875
1575789709.5267682,-752.44140625,-674.31640625,-786.62109375,714.35546875,637.20703125
1575789709.5267682,-752.44140625,-657.71484375,-1000.0,-965.33203125,191.89453125
1575789709.5267682,-759.27734375,-702.63671875,-778.3203125,-428.7109375,-1000.0
1575789709.5267682,-757.8125,-723.6328125,-384.765625,-1000.0,-716.796875
1575789709.5267682,-751.953125,-684.5703125,-600.09765625,35.64453125,728.515625
1575789709.5267682,-756.34765625,-641.11328125,-998.53515625,-784.66796875,424.8046875
1575789709.5267682,-759.765625,-665.0390625,-941.89453125,116.2109375,-1000.0
1575789709.5267682,-756.8359375,-706.54296875,-485.83984375,-1000.0,-1000.0
1575789709.5736432,-754.39453125,-677.24609375,-581.54296875,-252.44140625,212.890625
1575789709.5736432,-752.9296875,-632.32421875,-1000.0,-811.5234375,352.05078125
1575789709.5736432,-756.8359375,-660.64453125,-1000.0,241.69921875,-907.2265625
1575789709.5736432,-759.27734375,-714.35546875,-584.47265625,-1000.0,-1000.0
1575789709.5736432,-756.34765625,-693.359375,-499.0234375,-449.70703125,-127.9296875
1575789709.5736432,-753.90625,-637.6953125,-942.87109375,-957.51953125,956.54296875
1575789709.5736432,-757.32421875,-646.484375,-1000.0,528.80859375,-134.27734375
1575789709.5736432,-757.8125,-708.984375,-608.3984375,-956.54296875,-1000.0
1575789709.5736432,-757.32421875,-714.84375,-263.671875,-985.83984375,117.67578125
1575789709.5736432,-757.32421875,-650.390625,-769.04296875,494.62890625,921.38671875
1575789709.5736432,-753.41796875,-638.671875,-1000.0,-853.515625,-360.3515625
1575789709.5736432,-758.30078125,-688.96484375,-804.6875,-234.375,-1000.0
1575789709.6205182,-760.25390625,-713.8671875,-459.47265625,-1000.0,-894.04296875
1575789709.6205182,-755.37109375,-671.38671875,-722.16796875,-106.93359375,6.8359375
1575789709.6205182,-752.9296875,-636.71875,-1000.0,-794.43359375,-14.16015625
1575789709.6205182,-760.7421875,-664.55078125,-906.73828125,218.26171875,-1000.0
1575789709.6205182,-761.23046875,-702.1484375,-500.48828125,-1000.0,-896.484375
1575789709.6205182,-755.37109375,-684.08203125,-534.66796875,-267.578125,459.47265625
1575789709.6205182,-752.9296875,-637.6953125,-984.375,-808.10546875,786.62109375
1575789709.6205182,-756.34765625,-659.66796875,-899.4140625,315.4296875,0.0
1575789709.6205182,-761.23046875,-709.9609375,-438.4765625,-1000.0,-620.60546875
1575789709.6205182,-758.30078125,-694.3359375,-470.703125,-605.95703125,-596.19140625
1575789709.6205182,-752.44140625,-645.99609375,-896.484375,-998.53515625,297.36328125
1575789709.6205182,-755.859375,-644.04296875,-1000.0,769.53125,-321.2890625
1575789709.6673932,-759.765625,-688.4765625,-775.87890625,-781.25,-1000.0
1575789709.6673932,-757.32421875,-698.2421875,-472.65625,-1000.0,-823.2421875
1575789709.6673932,-752.9296875,-657.71484375,-779.78515625,258.30078125,374.0234375
1575789709.6673932,-753.41796875,-639.6484375,-1000.0,-811.5234375,240.72265625
1575789709.6673932,-758.7890625,-682.12890625,-871.09375,-109.86328125,-1000.0
1575789709.6673932,-758.7890625,-715.33203125,-438.96484375,-1000.0,-813.96484375
1575789709.6673932,-755.37109375,-687.98828125,-539.0625,-229.98046875,508.30078125
1575789709.6673932,-754.39453125,-646.97265625,-951.66015625,-816.89453125,-964.84375
1575789709.6673932,-761.71875,-662.109375,-978.515625,233.3984375,-245.60546875
1575789709.6673932,-759.27734375,-706.0546875,-583.984375,-1000.0,-1000.0
1575789709.6673932,-753.90625,-687.5,-548.828125,-270.01953125,-128.41796875
1575789709.6673932,-754.39453125,-641.11328125,-947.75390625,-812.01171875,567.87109375
1575789709.7142682,-758.30078125,-657.71484375,-1000.0,432.12890625,-685.05859375
1575789709.7142682,-760.25390625,-713.37890625,-695.3125,-1000.0,-1000.0
1575789709.7142682,-757.32421875,-716.30859375,-470.703125,-717.7734375,-249.51171875
1575789709.7142682,-754.39453125,-665.0390625,-855.46875,901.3671875,770.01953125
1575789709.7142682,-754.8828125,-660.64453125,-1000.0,880.859375,-308.59375
1575789709.7142682,-758.7890625,-720.703125,-740.72265625,-644.53125,-1000.0
1575789709.7142682,-756.8359375,-746.09375,-301.26953125,-1000.0,-242.1875
1575789709.7142682,-755.37109375,-695.3125,-645.99609375,125.0,-970.21484375
1575789709.7142682,-753.90625,-653.3203125,-1000.0,-784.1796875,-44.43359375
1575789709.7142682,-756.8359375,-695.3125,-861.81640625,69.3359375,-1000.0
1575789709.7142682,-758.30078125,-732.91015625,-443.84765625,-1000.0,-729.4921875
1575789709.7142682,-755.859375,-700.68359375,-655.76171875,-248.53515625,661.62109375
1575789709.7611432,-753.41796875,-655.2734375,-1000.0,-810.546875,416.015625
1575789709.7611432,-756.34765625,-679.19921875,-928.22265625,239.2578125,-917.48046875
1575789709.7611432,-760.25390625,-733.3984375,-491.2109375,-1000.0,-1000.0
1575789709.7611432,-756.34765625,-715.33203125,-524.90234375,-361.328125,-360.3515625
1575789709.7611432,-751.953125,-666.015625,-972.16796875,-913.0859375,443.359375
1575789709.7611432,-752.9296875,-685.546875,-965.33203125,455.078125,-418.9453125
1575789709.7611432,-760.7421875,-737.79296875,-522.4609375,-1000.0,-658.69140625
1575789709.7611432,-762.6953125,-727.05078125,-435.546875,-878.41796875,-191.40625
1575789709.7611432,-754.8828125,-669.921875,-859.86328125,655.2734375,262.20703125
1575789709.7611432,-755.37109375,-651.3671875,-1000.0,-917.96875,-215.33203125
1575789709.7611432,-763.18359375,-701.171875,-780.2734375,-341.796875,-1000.0
1575789709.7611432,-761.23046875,-719.23828125,-468.75,-1000.0,-879.39453125
1575789709.8080182,-753.90625,-675.78125,-736.81640625,-12.6953125,80.56640625
1575789709.8080182,-754.8828125,-643.5546875,-1000.0,-781.73828125,355.95703125
1575789709.8080182,-763.18359375,-678.7109375,-916.50390625,189.94140625,-624.0234375
1575789709.8080182,-760.7421875,-713.8671875,-524.4140625,-1000.0,-1000.0
1575789709.8080182,-754.39453125,-687.98828125,-599.609375,-262.20703125,-185.546875
1575789709.8080182,-752.9296875,-647.4609375,-1000.0,-808.10546875,-918.9453125
1575789709.8080182,-758.7890625,-666.50390625,-969.23828125,239.74609375,211.42578125
1575789709.8080182,-761.71875,-716.796875,-553.7109375,-1000.0,-1000.0
1575789709.8080182,-756.34765625,-706.54296875,-459.47265625,-520.01953125,-512.6953125
1575789709.8080182,-752.44140625,-670.8984375,-826.66015625,-936.03515625,750.48828125
1575789709.8080182,-758.30078125,-668.45703125,-1000.0,659.66796875,-117.67578125
1575789709.8080182,-761.23046875,-703.61328125,-780.2734375,-923.828125,-1000.0
1575789709.8548932,-758.30078125,-716.796875,-444.3359375,-1000.0,-633.7890625
1575789709.8548932,-753.90625,-671.38671875,-751.46484375,426.26953125,617.67578125
1575789709.8548932,-754.39453125,-648.92578125,-1000.0,-829.58984375,-22.94921875
1575789709.8548932,-758.30078125,-695.3125,-874.0234375,-166.015625,-1000.0
1575789709.8548932,-756.8359375,-726.07421875,-439.453125,-1000.0,-762.20703125
1575789709.8548932,-753.90625,-681.640625,-608.88671875,-124.51171875,659.1796875
1575789709.8548932,-754.8828125,-641.11328125,-1000.0,-792.48046875,744.62890625
1575789709.8548932,-761.23046875,-674.31640625,-941.40625,219.23828125,-758.30078125
1575789709.8548932,-760.25390625,-723.6328125,-399.90234375,-1000.0,-975.09765625
1575789709.8548932,-756.34765625,-707.03125,-397.94921875,-269.53125,599.609375
1575789709.8548932,-755.37109375,-648.92578125,-971.19140625,-808.59375,616.2109375
1575789709.8548932,-756.34765625,-666.015625,-1000.0,359.375,-836.9140625
1575789709.9017682,-759.765625,-721.6796875,-610.3515625,-1000.0,-1000.0
1575789709.9017682,-757.8125,-708.984375,-498.53515625,-623.53515625,-242.1875
1575789709.9017682,-755.37109375,-651.3671875,-901.3671875,971.19140625,430.6640625
1575789709.9017682,-754.39453125,-649.4140625,-1000.0,854.98046875,-386.23046875
1575789709.9017682,-756.8359375,-702.63671875,-709.9609375,-666.015625,-1000.0
1575789709.9017682,-756.8359375,-717.28515625,-368.65234375,-1000.0,-375.0
1575789709.9017682,-755.859375,-670.41015625,-727.5390625,213.8671875,911.62109375
1575789709.9017682,-755.37109375,-644.53125,-1000.0,-789.55078125,155.76171875
1575789709.9017682,-758.7890625,-695.80078125,-739.74609375,-17.08984375,-730.95703125
1575789709.9017682,-764.16015625,-725.5859375,-347.65625,-1000.0,-227.05078125
1575789709.9017682,-755.859375,-682.12890625,-683.10546875,-239.2578125,203.125
1575789709.9017682,-753.41796875,-649.4140625,-1000.0,-813.4765625,82.03125
1575789709.9486432,-759.765625,-666.015625,-973.6328125,235.83984375,-826.171875
1575789709.9486432,-759.765625,-699.70703125,-607.91015625,-1000.0,-1000.0
1575789709.9486432,-755.859375,-686.03515625,-591.796875,-327.1484375,-384.27734375
1575789709.9486432,-752.9296875,-641.6015625,-968.26171875,-832.03125,454.1015625
1575789709.9486432,-756.8359375,-654.78515625,-1000.0,460.44921875,-268.06640625
1575789709.9486432,-759.765625,-704.58984375,-656.73828125,-1000.0,-1000.0
1575789709.9486432,-757.8125,-706.54296875,-406.73828125,-767.578125,-335.44921875
1575789709.9486432,-753.90625,-660.64453125,-801.26953125,790.52734375,940.4296875
1575789709.9486432,-756.8359375,-645.5078125,-1000.0,-995.60546875,822.75390625
1575789709.9486432,-761.23046875,-688.4765625,-821.2890625,-470.703125,-641.11328125
1575789709.9486432,-757.32421875,-713.8671875,-479.98046875,-1000.0,-817.87109375
1575789709.9486432,-754.8828125,-674.8046875,-712.40234375,99.12109375,748.53515625
1575789709.9955182,-755.37109375,-640.13671875,-1000.0,-778.3203125,202.63671875
1575789709.9955182,-761.23046875,-680.6640625,-884.27734375,94.7265625,-1000.0
1575789709.9955182,-761.71875,-713.37890625,-463.8671875,-1000.0,-1000.0
1575789709.9955182,-755.37109375,-679.19921875,-597.65625,-250.9765625,158.69140625
1575789709.9955182,-751.953125,-641.11328125,-1000.0,-811.03515625,533.203125
1575789709.9955182,-759.765625,-665.0390625,-948.2421875,238.76953125,-792.96875
1575789709.9955182,-764.16015625,-708.0078125,-508.7890625,-1000.0,-1000.0
1575789709.9955182,-756.8359375,-700.68359375,-348.14453125,-427.24609375,143.06640625
1575789709.9955182,-754.39453125,-651.85546875,-793.45703125,-883.7890625,798.828125
1575789709.9955182,-757.32421875,-647.4609375,-1000.0,606.4453125,-533.69140625
1575789709.9955182,-761.23046875,-699.21875,-698.2421875,-990.72265625,-1000.0
1575789709.9955182,-758.7890625,-698.73046875,-426.7578125,-917.96875,-269.53125
1575789710.0423932,-755.37109375,-653.80859375,-827.1484375,595.703125,829.58984375
1575789710.0423932,-756.34765625,-645.5078125,-1000.0,-858.88671875,-43.45703125
1575789710.0423932,-758.7890625,-693.84765625,-796.38671875,-243.1640625,-1000.0
1575789710.0423932,-757.8125,-715.33203125,-397.94921875,-1000.0,-811.03515625
1575789710.0423932,-753.90625,-677.24609375,-673.33984375,-16.11328125,327.1484375
1575789710.0423932,-752.9296875,-645.5078125,-1000.0,-776.85546875,502.9296875
1575789710.0423932,-756.8359375,-682.6171875,-833.984375,207.03125,-924.8046875
1575789710.0423932,-761.23046875,-726.07421875,-312.01171875,-1000.0,-257.8125
1575789710.0423932,-759.765625,-692.87109375,-569.3359375,-269.04296875,926.26953125
1575789710.0423932,-753.41796875,-644.04296875,-1000.0,-806.640625,167.96875
1575789710.0423932,-757.32421875,-664.0625,-976.5625,309.5703125,-808.59375
1575789710.0423932,-761.71875,-710.9375,-618.65234375,-1000.0,-1000.0
1575789710.0892682,-758.7890625,-695.80078125,-535.64453125,-549.31640625,-511.23046875
1575789710.0892682,-753.90625,-645.99609375,-908.69140625,-964.84375,314.94140625
1575789710.0892682,-754.8828125,-647.94921875,-1000.0,757.32421875,-395.01953125
1575789710.0892682,-759.765625,-694.82421875,-769.04296875,-816.40625,-1000.0
1575789710.0892682,-757.8125,-694.82421875,-455.078125,-1000.0,-442.3828125
1575789710.0892682,-752.9296875,-639.16015625,-762.20703125,402.83203125,771.97265625
1575789710.0892682,-753.41796875,-619.140625,-1000.0,-820.80078125,890.625
1575789710.0892682,-760.7421875,-661.1328125,-791.9921875,-125.9765625,-151.85546875
1575789710.0892682,-760.7421875,-678.22265625,-442.87109375,-1000.0,-1000.0
1575789710.0892682,-754.39453125,-635.7421875,-686.03515625,-191.40625,-2.9296875
1575789710.0892682,-753.41796875,-606.4453125,-1000.0,-807.6171875,356.4453125
1575789710.0892682,-759.765625,-634.765625,-938.96484375,228.02734375,-817.87109375
1575789710.1361432,-760.7421875,-665.52734375,-551.26953125,-1000.0,-1000.0
1575789710.1361432,-755.37109375,-636.23046875,-528.3203125,-268.5546875,-103.02734375
1575789710.1361432,-753.90625,-583.49609375,-924.31640625,-809.5703125,639.16015625
1575789710.1361432,-758.30078125,-591.796875,-1000.0,374.0234375,-577.63671875
1575789710.1361432,-760.7421875,-639.16015625,-645.99609375,-1000.0,-1000.0
1575789710.1361432,-755.859375,-643.06640625,-367.67578125,-676.7578125,-99.12109375
1575789710.1361432,-753.90625,-596.19140625,-743.65234375,930.6640625,-920.8984375
1575789710.1361432,-756.8359375,-583.984375,-1000.0,863.28125,45.41015625
1575789710.1361432,-760.7421875,-631.34765625,-803.7109375,-654.78515625,-1000.0
1575789710.1361432,-756.34765625,-644.04296875,-311.5234375,-1000.0,-605.46875
1575789710.1361432,-755.37109375,-590.33203125,-553.7109375,144.53125,916.50390625
1575789710.1361432,-759.765625,-556.15234375,-1000.0,-793.9453125,288.0859375
1575789710.1830182,-758.7890625,-599.12109375,-883.7890625,-10.7421875,-1000.0
1575789710.1830182,-758.30078125,-633.7890625,-429.19921875,-1000.0,-728.515625
1575789710.1830182,-755.859375,-596.19140625,-623.53515625,-238.76953125,484.86328125
1575789710.1830182,-752.9296875,-556.15234375,-1000.0,-815.91796875,310.546875
1575789710.1830182,-757.32421875,-589.84375,-955.078125,238.76953125,-967.7734375
1575789710.1830182,-760.7421875,-633.30078125,-469.23828125,-1000.0,-704.1015625
1575789710.1830182,-756.8359375,-613.76953125,-416.015625,-373.53515625,688.4765625
1575789710.1830182,-754.8828125,-560.546875,-923.33984375,-851.07421875,751.953125
1575789710.1830182,-755.859375,-568.84765625,-1000.0,506.8359375,-742.67578125
1575789710.1830182,-757.8125,-632.8125,-528.3203125,-1000.0,-591.30859375
1575789710.1830182,-760.7421875,-634.27734375,-367.1875,-849.609375,693.359375
1575789710.1830182,-754.8828125,-589.84375,-853.02734375,705.56640625,612.3046875
1575789710.2298932,-752.9296875,-594.7265625,-1000.0,-964.35546875,-356.4453125
1575789710.2298932,-759.27734375,-642.08984375,-776.85546875,-427.734375,-1000.0
1575789710.2298932,-759.27734375,-654.296875,-451.171875,-1000.0,-859.375
1575789710.2298932,-756.8359375,-620.1171875,-732.421875,27.83203125,157.2265625
1575789710.2298932,-755.859375,-602.05078125,-1000.0,-784.66796875,87.890625
1575789710.2298932,-759.27734375,-641.11328125,-869.140625,127.44140625,-916.50390625
1575789710.2298932,-761.71875,-674.31640625,-411.1328125,-1000.0,-867.67578125
1575789710.2298932,-757.32421875,-640.625,-570.3125,-253.90625,14.6484375
1575789710.2298932,-750.48828125,-609.375,-1000.0,-810.546875,476.5625
1575789710.2298932,-757.32421875,-636.71875,-939.453125,239.74609375,-98.6328125
1575789710.2298932,-761.23046875,-658.203125,-566.89453125,-1000.0,-1000.0
1575789710.2298932,-756.8359375,-639.16015625,-542.96875,-467.7734375,-531.73828125
1575789710.2767682,-755.37109375,-602.05078125,-912.109375,-901.85546875,865.72265625
1575789710.2767682,-756.8359375,-609.375,-1000.0,624.51171875,-6.8359375
1575789710.2767682,-759.765625,-658.203125,-744.140625,-966.30859375,-1000.0
1575789710.2767682,-757.8125,-674.31640625,-427.734375,-977.05078125,-729.00390625
1575789710.2767682,-753.41796875,-636.23046875,-763.18359375,505.859375,635.7421875
1575789710.2767682,-753.41796875,-617.1875,-1000.0,-846.6796875,366.69921875
1575789710.2767682,-760.7421875,-656.73828125,-811.03515625,-208.49609375,-1000.0
1575789710.2767682,-758.7890625,-687.5,-402.34375,-1000.0,-976.07421875
1575789710.2767682,-755.37109375,-663.0859375,-558.59375,-92.7734375,448.2421875
1575789710.2767682,-758.7890625,-621.58203125,-970.703125,-789.55078125,519.53125
1575789710.2767682,-760.7421875,-649.4140625,-973.14453125,215.8203125,-954.1015625
1575789710.2767682,-758.7890625,-699.21875,-516.6015625,-1000.0,-1000.0
1575789710.3236432,-755.37109375,-682.12890625,-554.6875,-269.04296875,147.94921875
1575789710.3236432,-756.34765625,-639.16015625,-998.046875,-806.15234375,488.76953125
1575789710.3236432,-759.765625,-651.3671875,-1000.0,340.8203125,-765.13671875
1575789710.3236432,-759.765625,-702.1484375,-601.07421875,-1000.0,-1000.0
1575789710.3236432,-756.34765625,-698.73046875,-472.65625,-553.22265625,-206.0546875
1575789710.3236432,-753.90625,-657.2265625,-916.9921875,985.3515625,999.51171875
1575789710.3236432,-756.34765625,-658.203125,-1000.0,775.87890625,11.71875
1575789710.3236432,-758.7890625,-708.984375,-646.484375,-723.14453125,-1000.0
1575789710.3236432,-759.27734375,-720.21484375,-261.23046875,-1000.0,37.59765625
1575789710.3236432,-758.30078125,-662.59765625,-749.0234375,366.69921875,986.328125
1575789710.3236432,-753.90625,-650.87890625,-1000.0,-799.31640625,-267.578125
1575789710.3236432,-759.27734375,-703.125,-844.23828125,-33.69140625,-1000.0
1575789710.3705182,-761.71875,-723.14453125,-496.58203125,-1000.0,-932.6171875
1575789710.3705182,-756.8359375,-678.22265625,-711.42578125,-192.3828125,-40.52734375
1575789710.3705182,-751.46484375,-650.390625,-1000.0,-799.31640625,107.421875
1575789710.3705182,-756.8359375,-687.5,-946.2890625,225.5859375,-1000.0
1575789710.3705182,-760.7421875,-720.703125,-567.87109375,-1000.0,-927.24609375
1575789710.3705182,-756.8359375,-701.66015625,-541.015625,-271.97265625,405.76171875
1575789710.3705182,-754.8828125,-657.71484375,-971.19140625,-814.94140625,845.21484375
1575789710.3705182,-755.859375,-676.26953125,-928.22265625,475.5859375,192.87109375
1575789710.3705182,-760.7421875,-721.19140625,-491.69921875,-1000.0,-494.62890625
1575789710.3705182,-760.25390625,-704.1015625,-473.6328125,-691.40625,-630.37109375
1575789710.3705182,-753.41796875,-656.25,-878.90625,901.85546875,360.83984375
1575789710.3705182,-754.8828125,-650.390625,-1000.0,964.35546875,-173.33984375
1575789710.4173932,-762.20703125,-701.171875,-810.05859375,-503.90625,-1000.0
1575789710.4173932,-758.7890625,-718.75,-489.74609375,-1000.0,-873.53515625
1575789710.4173932,-752.9296875,-675.78125,-760.25390625,124.0234375,398.4375
1575789710.4173932,-754.8828125,-651.3671875,-1000.0,-773.4375,388.671875
1575789710.4173932,-760.7421875,-687.98828125,-886.71875,52.24609375,-1000.0
1575789710.4173932,-759.765625,-722.65625,-464.84375,-1000.0,-831.0546875
1575789710.4173932,-754.39453125,-704.58984375,-517.08984375,-160.15625,477.5390625
1575789710.4173932,-754.39453125,-666.015625,-914.0625,-822.75390625,-935.546875
1575789710.4173932,-760.25390625,-676.26953125,-1000.0,239.2578125,-168.45703125
1575789710.4173932,-759.765625,-720.703125,-620.60546875,-1000.0,-1000.0
1575789710.4173932,-757.32421875,-710.44921875,-516.11328125,-417.96875,-191.40625
1575789710.4173932,-754.8828125,-655.2734375,-906.25,-871.09375,665.0390625
1575789710.4642682,-758.30078125,-648.92578125,-1000.0,534.66796875,-541.9921875
1575789710.4642682,-758.7890625,-701.66015625,-721.19140625,-1000.0,-1000.0
1575789710.4642682,-756.8359375,-712.40234375,-448.2421875,-900.87890625,-301.26953125
1575789710.4642682,-756.8359375,-658.203125,-810.05859375,612.79296875,821.77734375
1575789710.4642682,-756.8359375,-646.484375,-1000.0,-895.99609375,-189.94140625
1575789710.4642682,-760.25390625,-700.68359375,-801.7578125,-312.5,-1000.0
1575789710.4642682,-757.32421875,-731.93359375,-269.53125,-1000.0,-309.5703125
1575789710.4642682,-755.37109375,-687.01171875,-554.6875,-14.6484375,-950.68359375
1575789710.4642682,-758.30078125,-644.04296875,-1000.0,-779.296875,41.015625
1575789710.4642682,-761.71875,-685.05859375,-890.13671875,207.03125,-1000.0
1575789710.4642682,-759.765625,-724.609375,-474.609375,-1000.0,-901.85546875
1575789710.4642682,-757.32421875,-695.3125,-635.7421875,-264.6484375,333.49609375
1575789710.5111432,-753.90625,-651.3671875,-1000.0,-807.6171875,433.59375
1575789710.5111432,-755.859375,-677.24609375,-950.68359375,239.2578125,-848.14453125
1575789710.5111432,-760.7421875,-729.98046875,-528.80859375,-1000.0,-1000.0
1575789710.5111432,-758.30078125,-715.33203125,-505.37109375,-541.015625,-439.94140625
1575789710.5111432,-753.41796875,-665.52734375,-945.80078125,-936.03515625,506.8359375
1575789710.5111432,-752.44140625,-677.734375,-990.234375,623.046875,-367.67578125
1575789710.5111432,-760.7421875,-727.05078125,-548.33984375,-930.6640625,-524.4140625
1575789710.5111432,-763.671875,-723.6328125,-410.15625,-1000.0,111.328125
1575789710.5111432,-756.8359375,-676.7578125,-818.84765625,312.01171875,316.89453125
1575789710.5111432,-755.37109375,-663.57421875,-1000.0,-862.79296875,-162.59765625
1575789710.5111432,-761.71875,-701.66015625,-802.24609375,-256.8359375,-1000.0
1575789710.5111432,-759.765625,-720.21484375,-420.8984375,-1000.0,-938.96484375
1575789710.5580182,-754.39453125,-681.640625,-678.22265625,-213.8671875,6.34765625
1575789710.5580182,-754.8828125,-652.34375,-1000.0,-836.42578125,435.05859375
1575789710.5580182,-760.25390625,-687.01171875,-928.7109375,175.29296875,-543.45703125
1575789710.5580182,-761.23046875,-721.6796875,-509.765625,-1000.0,-1000.0
1575789710.5580182,-757.32421875,-700.68359375,-480.95703125,-383.30078125,-271.97265625
1575789710.5580182,-754.39453125,-670.41015625,-919.921875,-861.81640625,-946.2890625
1575789710.5580182,-758.30078125,-680.6640625,-959.9609375,243.1640625,217.28515625
1575789710.5580182,-762.6953125,-719.7265625,-518.06640625,-1000.0,-1000.0
1575789710.5580182,-758.7890625,-722.16796875,-356.93359375,-910.15625,-631.34765625
1575789710.5580182,-752.44140625,-684.5703125,-694.82421875,699.70703125,649.90234375
1575789710.5580182,-759.765625,-674.31640625,-1000.0,584.9609375,-76.171875
1575789710.5580182,-763.671875,-721.19140625,-763.671875,-952.63671875,-1000.0
1575789710.6048932,-757.8125,-741.69921875,-308.59375,-1000.0,-772.4609375
1575789710.6048932,-755.859375,-693.359375,-605.95703125,-23.4375,396.97265625
1575789710.6048932,-756.8359375,-666.9921875,-1000.0,-970.21484375,-70.80078125
1575789710.6048932,-757.8125,-713.8671875,-868.65234375,-371.58203125,-1000.0
1575789710.6048932,-756.8359375,-749.0234375,-358.88671875,-1000.0,-867.1875
1575789710.6048932,-755.37109375,-711.42578125,-495.1171875,-186.03515625,519.53125
1575789710.6048932,-754.39453125,-676.7578125,-991.69921875,-907.2265625,643.5546875
1575789710.6048932,-760.25390625,-705.56640625,-923.828125,66.89453125,-834.9609375
1575789710.6048932,-758.7890625,-751.46484375,-361.328125,-1000.0,-1000.0
1575789710.6048932,-756.8359375,-735.3515625,-304.6875,-598.6328125,366.69921875
1575789710.6048932,-758.7890625,-673.33984375,-911.62109375,-975.09765625,461.9140625
1575789710.6048932,-758.7890625,-685.05859375,-1000.0,260.25390625,-1000.0
1575789710.6517682,-759.27734375,-748.53515625,-618.65234375,-1000.0,-924.8046875
1575789710.6517682,-757.32421875,-748.046875,-442.87109375,-1000.0,-277.83203125
1575789710.6517682,-755.859375,-701.66015625,-848.14453125,348.14453125,-58.59375
1575789710.6517682,-755.37109375,-699.70703125,-1000.0,695.3125,-651.3671875
1575789710.6517682,-757.32421875,-750.9765625,-750.9765625,-886.23046875,-1000.0
1575789710.6517682,-756.8359375,-770.5078125,-359.86328125,-1000.0,-809.5703125
1575789710.6517682,-756.34765625,-727.05078125,-670.8984375,-185.05859375,352.5390625
1575789710.6517682,-755.37109375,-698.2421875,-1000.0,-895.5078125,19.53125
1575789710.6517682,-758.30078125,-751.46484375,-761.71875,-131.8359375,-894.53125
1575789710.6517682,-763.18359375,-794.43359375,-332.51953125,-1000.0,-750.0
1575789710.6517682,-758.7890625,-754.8828125,-610.3515625,-219.7265625,-452.1484375
1575789710.6517682,-753.41796875,-715.8203125,-1000.0,-836.9140625,-379.39453125
1575789710.6986432,-756.8359375,-743.1640625,-996.09375,240.72265625,-966.30859375
1575789710.6986432,-759.27734375,-787.59765625,-618.65234375,-1000.0,-1000.0
1575789710.6986432,-757.32421875,-770.01953125,-537.109375,-725.5859375,-670.8984375
1575789710.6986432,-752.9296875,-721.6796875,-927.24609375,932.6171875,-62.98828125
1575789710.6986432,-755.859375,-725.5859375,-1000.0,366.69921875,-552.734375
1575789710.6986432,-760.7421875,-776.3671875,-672.8515625,-1000.0,-1000.0
1575789710.6986432,-758.30078125,-775.87890625,-368.65234375,-1000.0,-601.5625
1575789710.6986432,-751.953125,-721.19140625,-745.1171875,211.42578125,527.83203125
1575789710.6986432,-754.8828125,-696.2890625,-1000.0,811.03515625,619.62890625
1575789710.6986432,-762.20703125,-720.703125,-834.9609375,-742.1875,-631.8359375
1575789710.6986432,-756.8359375,-739.2578125,-457.03125,-1000.0,-1000.0
1575789710.6986432,-753.90625,-689.453125,-669.921875,-182.12890625,314.453125
1575789710.7455182,-756.34765625,-643.5546875,-1000.0,-899.90234375,97.65625
1575789710.7455182,-760.25390625,-669.921875,-891.6015625,-92.7734375,-1000.0
1575789710.7455182,-757.32421875,-712.890625,-452.1484375,-1000.0,-1000.0
1575789710.7455182,-756.34765625,-685.546875,-512.20703125,-508.30078125,-140.13671875
1575789710.7455182,-755.859375,-625.0,-973.6328125,-949.70703125,292.48046875
1575789710.7455182,-757.8125,-630.859375,-954.1015625,250.0,-848.14453125
1575789710.7455182,-761.23046875,-687.98828125,-499.0234375,-1000.0,-1000.0
1575789710.7455182,-757.32421875,-684.5703125,-249.0234375,-1000.0,-104.00390625
1575789710.7455182,-757.32421875,-595.703125,-695.80078125,353.515625,711.9140625
1575789710.7455182,-758.30078125,-562.5,-1000.0,319.3359375,-650.390625
1575789710.7455182,-756.34765625,-626.953125,-657.2265625,-1000.0,-1000.0
1575789710.7455182,-756.8359375,-649.4140625,-304.19921875,-1000.0,-698.2421875
1575789710.7923932,-758.7890625,-577.63671875,-717.7734375,-63.96484375,25.390625
1575789710.7923932,-757.32421875,-548.828125,-1000.0,540.52734375,-362.3046875
1575789710.7923932,-757.8125,-608.88671875,-770.01953125,-872.0703125,-1000.0
1575789710.7923932,-757.32421875,-657.71484375,-283.203125,-1000.0,-994.62890625
1575789710.7923932,-756.34765625,-590.8203125,-509.765625,-359.375,-220.21484375
1575789710.7923932,-753.41796875,-515.13671875,-1000.0,870.1171875,-19.53125
1575789710.7923932,-753.90625,-555.6640625,-822.75390625,-385.7421875,-1000.0
1575789710.7923932,-757.8125,-637.20703125,-225.5859375,-1000.0,-467.7734375
1575789710.7923932,-759.27734375,-591.30859375,-405.76171875,-975.5859375,280.76171875
1575789710.7923932,-756.34765625,-500.9765625,-944.82421875,425.29296875,-399.90234375
1575789710.7923932,-756.8359375,-519.53125,-965.33203125,164.0625,-979.00390625
1575789710.7923932,-758.30078125,-601.5625,-553.22265625,-1000.0,-1000.0
1575789710.8392682,-756.34765625,-609.86328125,-400.390625,-1000.0,-791.50390625
1575789710.8392682,-755.37109375,-533.69140625,-805.6640625,-51.26953125,-386.71875
1575789710.8392682,-755.859375,-517.08984375,-1000.0,261.23046875,-783.203125
1575789710.8392682,-759.765625,-593.26171875,-720.703125,-1000.0,-1000.0
1575789710.8392682,-757.32421875,-642.08984375,-375.9765625,-1000.0,-894.53125
1575789710.8392682,-754.39453125,-566.40625,-662.109375,-115.72265625,54.19921875
1575789710.8392682,-755.859375,-518.06640625,-965.8203125,460.9375,287.109375
1575789710.8392682,-761.23046875,-576.66015625,-703.61328125,-856.93359375,-544.921875
1575789710.8392682,-759.765625,-644.53125,-383.7890625,-1000.0,-1000.0
1575789710.8392682,-754.8828125,-593.75,-571.2890625,-528.80859375,-586.42578125
1575789710.8392682,-754.39453125,-508.30078125,-960.44921875,924.31640625,-311.03515625
1575789710.8392682,-758.7890625,-539.55078125,-954.58984375,-137.6953125,-935.546875
1575789710.8861432,-756.34765625,-629.8828125,-552.734375,-1000.0,-1000.0
1575789710.8861432,-753.41796875,-623.53515625,-458.0078125,-1000.0,-602.05078125
1575789710.8861432,-754.39453125,-532.71484375,-857.91015625,414.0625,-55.6640625
1575789710.8861432,-756.8359375,-521.97265625,-1000.0,324.21875,-762.6953125
1575789710.8861432,-758.30078125,-619.140625,-666.50390625,-1000.0,-1000.0
1575789710.8861432,-755.37109375,-656.73828125,-318.359375,-1000.0,-521.97265625
1575789710.8861432,-754.39453125,-567.87109375,-651.3671875,23.92578125,779.78515625
1575789710.8861432,-758.30078125,-523.92578125,-1000.0,405.2734375,-63.4765625
1575789710.8861432,-758.7890625,-604.98046875,-819.82421875,-973.6328125,-1000.0
1575789710.8861432,-753.41796875,-675.78125,-304.6875,-1000.0,-782.71484375
1575789710.8861432,-754.39453125,-611.81640625,-548.33984375,-117.67578125,165.0390625
1575789710.8861432,-758.30078125,-546.38671875,-1000.0,850.09765625,-333.984375
1575789710.9330182,-757.32421875,-604.4921875,-896.97265625,-548.828125,-1000.0
1575789710.9330182,-754.8828125,-691.89453125,-438.96484375,-1000.0,-895.01953125
1575789710.9330182,-755.37109375,-652.83203125,-563.4765625,-532.71484375,-205.078125
1575789710.9330182,-756.34765625,-570.3125,-1000.0,982.91015625,-271.97265625
1575789710.9330182,-756.8359375,-607.421875,-965.8203125,82.51953125,-1000.0
1575789710.9330182,-757.32421875,-700.68359375,-483.88671875,-1000.0,-804.19921875
1575789710.9330182,-755.37109375,-688.4765625,-355.46875,-1000.0,255.37109375
1575789710.9330182,-755.37109375,-589.84375,-849.609375,387.20703125,121.58203125
1575789710.9330182,-755.859375,-584.9609375,-1000.0,320.80078125,-947.265625
1575789710.9330182,-757.32421875,-680.17578125,-537.59765625,-1000.0,-775.390625
1575789710.9330182,-760.7421875,-711.42578125,-300.29296875,-1000.0,-427.24609375
1575789710.9330182,-756.34765625,-621.58203125,-761.71875,-51.26953125,-323.2421875
1575789710.9798932,-753.41796875,-577.1484375,-1000.0,554.19921875,-637.6953125
1575789710.9798932,-756.8359375,-647.4609375,-785.64453125,-888.671875,-1000.0
1575789710.9798932,-756.8359375,-714.35546875,-426.7578125,-1000.0,-1000.0
1575789710.9798932,-754.39453125,-652.34375,-667.48046875,-169.921875,-414.0625
1575789710.9798932,-752.9296875,-584.9609375,-1000.0,-944.3359375,-414.55078125
1575789710.9798932,-757.8125,-639.6484375,-870.1171875,-207.51953125,-1000.0
1575789710.9798932,-758.7890625,-725.5859375,-399.4140625,-1000.0,-1000.0
1575789710.9798932,-756.8359375,-687.01171875,-511.71875,-589.84375,-608.88671875
1575789710.9798932,-752.9296875,-600.5859375,-970.21484375,988.76953125,-151.85546875
1575789710.9798932,-756.34765625,-619.140625,-916.9921875,268.5546875,-531.25
1575789710.9798932,-758.30078125,-707.51953125,-564.453125,-1000.0,-1000.0
1575789710.9798932,-754.39453125,-724.609375,-493.65234375,-1000.0,-691.40625
1575789711.0267682,-754.39453125,-638.18359375,-848.14453125,349.12109375,322.265625
1575789711.0267682,-756.8359375,-618.1640625,-1000.0,380.37109375,-292.48046875
1575789711.0267682,-756.8359375,-701.171875,-710.44921875,-1000.0,-1000.0
1575789711.0267682,-755.37109375,-742.1875,-370.1171875,-1000.0,-986.81640625
1575789711.0267682,-754.39453125,-660.64453125,-693.84765625,-101.07421875,199.70703125
1575789711.0267682,-752.9296875,-604.4921875,-1000.0,764.16015625,156.25
1575789711.0267682,-758.7890625,-665.0390625,-813.4765625,-687.98828125,-1000.0
1575789711.0267682,-758.30078125,-734.86328125,-382.32421875,-1000.0,-1000.0
1575789711.0267682,-752.44140625,-694.82421875,-488.28125,-229.98046875,130.37109375
1575789711.0267682,-757.32421875,-614.74609375,-922.36328125,-894.53125,427.24609375
1575789711.0267682,-760.25390625,-635.7421875,-991.69921875,7.32421875,-1000.0
1575789711.0267682,-755.37109375,-727.05078125,-536.1328125,-1000.0,-1000.0
1575789711.0736432,-754.8828125,-709.47265625,-496.58203125,-711.42578125,-297.36328125
1575789711.0736432,-753.90625,-617.67578125,-951.171875,887.20703125,-89.35546875
1575789711.0736432,-756.8359375,-621.09375,-1000.0,282.71484375,-948.2421875
1575789711.0736432,-756.8359375,-704.1015625,-631.8359375,-1000.0,-1000.0
1575789711.0736432,-755.37109375,-713.37890625,-409.66796875,-1000.0,-573.2421875
1575789711.0736432,-753.41796875,-621.09375,-809.08203125,261.23046875,483.3984375
1575789711.0736432,-753.90625,-592.28515625,-1000.0,542.48046875,-199.21875
1575789711.0736432,-756.34765625,-671.38671875,-666.9921875,-959.9609375,-1000.0
1575789711.0736432,-756.34765625,-717.7734375,-235.3515625,-1000.0,-42.96875
1575789711.0736432,-757.32421875,-634.27734375,-693.359375,-149.4140625,721.6796875
1575789711.0736432,-755.37109375,-573.2421875,-1000.0,974.12109375,-502.9296875
1575789711.0736432,-755.859375,-627.9296875,-852.05078125,-377.44140625,-1000.0
1575789711.1205182,-756.34765625,-701.171875,-477.5390625,-1000.0,-1000.0
1575789711.1205182,-755.37109375,-657.2265625,-657.71484375,-323.2421875,-459.47265625
1575789711.1205182,-753.41796875,-579.58984375,-1000.0,-895.5078125,-304.6875
1575789711.1205182,-756.8359375,-599.609375,-946.2890625,148.4375,-989.74609375
1575789711.1205182,-758.7890625,-682.6171875,-562.01171875,-1000.0,-1000.0
1575789711.1205182,-754.8828125,-669.43359375,-470.21484375,-844.7265625,-244.62890625
1575789711.1205182,-750.9765625,-579.1015625,-903.3203125,750.48828125,603.515625
1575789711.1205182,-753.90625,-578.61328125,-926.7578125,295.8984375,-132.8125
1575789711.1205182,-759.27734375,-652.34375,-491.69921875,-1000.0,-812.01171875
1575789711.1205182,-757.8125,-663.57421875,-453.125,-1000.0,-793.9453125
1575789711.1205182,-753.41796875,-581.54296875,-834.9609375,132.8125,-64.453125
1575789711.1205182,-752.9296875,-542.96875,-1000.0,652.83203125,-411.62109375
1575789711.1673932,-756.34765625,-605.95703125,-828.125,-879.8828125,-1000.0
1575789711.1673932,-756.8359375,-663.57421875,-484.375,-1000.0,-1000.0
1575789711.1673932,-755.37109375,-602.05078125,-703.61328125,-178.22265625,-41.015625
1575789711.1673932,-752.9296875,-539.0625,-1000.0,-916.50390625,113.76953125
1575789711.1673932,-757.32421875,-591.30859375,-911.62109375,-163.0859375,-1000.0
1575789711.1673932,-758.7890625,-679.19921875,-479.98046875,-1000.0,-1000.0
1575789711.1673932,-752.9296875,-651.85546875,-455.56640625,-430.17578125,99.609375
1575789711.1673932,-752.44140625,-572.75390625,-861.328125,-920.8984375,-934.08203125
1575789711.1673932,-759.765625,-581.54296875,-1000.0,255.37109375,-102.05078125
1575789711.1673932,-757.8125,-669.921875,-663.57421875,-1000.0,-1000.0
1575789711.1673932,-755.859375,-676.26953125,-483.3984375,-970.21484375,-384.765625
1575789711.1673932,-755.37109375,-590.8203125,-847.16796875,604.00390625,409.1796875
1575789711.2142682,-756.34765625,-571.2890625,-1000.0,395.99609375,-636.71875
1575789711.2142682,-757.32421875,-657.2265625,-761.71875,-1000.0,-1000.0
1575789711.2142682,-755.859375,-693.359375,-446.77734375,-1000.0,-475.5859375
1575789711.2142682,-755.37109375,-600.5859375,-767.578125,11.71875,465.33203125
1575789711.2142682,-753.90625,-561.5234375,-1000.0,836.9140625,-314.94140625
1575789711.2142682,-757.8125,-635.7421875,-824.70703125,-655.2734375,-1000.0
1575789711.2142682,-757.32421875,-707.51953125,-281.25,-1000.0,-400.87890625
1575789711.2142682,-756.34765625,-645.99609375,-519.04296875,-193.359375,946.2890625
1575789711.2142682,-755.859375,-565.91796875,-1000.0,-873.046875,-44.43359375
1575789711.2142682,-757.32421875,-612.3046875,-911.62109375,29.78515625,-1000.0
1575789711.2142682,-757.8125,-701.171875,-502.9296875,-1000.0,-971.6796875
1575789711.2142682,-754.39453125,-674.8046875,-604.4921875,-520.5078125,-15.13671875
1575789711.2611432,-751.953125,-582.03125,-1000.0,-945.80078125,128.90625
1575789711.2611432,-753.90625,-596.6796875,-966.796875,262.6953125,-908.69140625
1575789711.2611432,-757.32421875,-691.89453125,-574.70703125,-1000.0,-1000.0
1575789711.2611432,-757.32421875,-693.359375,-503.41796875,-1000.0,-632.8125
1575789711.2611432,-753.90625,-607.421875,-894.04296875,528.3203125,229.00390625
1575789711.2611432,-754.8828125,-603.515625,-1000.0,583.49609375,-385.25390625
1575789711.2611432,-759.27734375,-678.22265625,-667.48046875,-956.0546875,-641.6015625
1575789711.2611432,-759.27734375,-708.984375,-433.59375,-1000.0,-267.578125
1575789711.2611432,-755.37109375,-632.32421875,-797.36328125,-84.47265625,-5.859375
1575789711.2611432,-751.953125,-590.8203125,-1000.0,-983.3984375,-297.36328125
1575789711.2611432,-758.30078125,-665.0390625,-750.48828125,-365.72265625,-1000.0
1575789711.2611432,-761.23046875,-727.05078125,-466.30859375,-1000.0,-1000.0
1575789711.3080182,-755.859375,-673.33984375,-707.03125,-205.56640625,-255.37109375
1575789711.3080182,-753.41796875,-607.91015625,-1000.0,-850.09765625,363.76953125
1575789711.3080182,-758.7890625,-642.08984375,-970.21484375,180.17578125,-474.12109375
1575789711.3080182,-758.7890625,-717.28515625,-618.1640625,-1000.0,-1000.0
1575789711.3080182,-755.859375,-700.1953125,-559.5703125,-622.55859375,-424.31640625
1575789711.3080182,-754.8828125,-616.69921875,-929.19921875,-983.3984375,808.59375
1575789711.3080182,-756.8359375,-616.69921875,-1000.0,263.18359375,-101.5625
1575789711.3080182,-759.27734375,-702.63671875,-684.08203125,-1000.0,-1000.0
1575789711.3080182,-756.8359375,-721.19140625,-486.81640625,-1000.0,-720.21484375
1575789711.3080182,-753.41796875,-645.99609375,-764.16015625,333.984375,690.91796875
1575789711.3080182,-757.8125,-609.375,-1000.0,696.2890625,344.7265625
1575789711.3080182,-760.7421875,-665.0390625,-857.91015625,-885.25390625,-1000.0
1575789711.3548932,-755.859375,-723.14453125,-488.28125,-1000.0,-887.6953125
1575789711.3548932,-753.90625,-655.2734375,-707.03125,-183.10546875,383.30078125
1575789711.3548932,-755.859375,-590.33203125,-1000.0,-901.85546875,29.296875
1575789711.3548932,-758.7890625,-643.5546875,-924.31640625,-137.20703125,-1000.0
1575789711.3548932,-755.859375,-719.23828125,-500.9765625,-1000.0,-904.296875
1575789711.3548932,-755.859375,-684.08203125,-556.15234375,-289.55078125,449.70703125
1575789711.3548932,-755.859375,-607.91015625,-993.1640625,-861.328125,794.43359375
1575789711.3548932,-757.8125,-623.046875,-983.3984375,249.0234375,-651.3671875
1575789711.3548932,-757.8125,-711.9140625,-483.88671875,-1000.0,-1000.0
1575789711.3548932,-758.30078125,-706.54296875,-367.1875,-780.76171875,323.2421875
1575789711.3548932,-756.8359375,-607.421875,-907.2265625,871.09375,693.359375
1575789711.3548932,-752.9296875,-602.5390625,-1000.0,381.8359375,-732.91015625
1575789711.4017682,-756.34765625,-678.7109375,-679.6875,-1000.0,-1000.0
1575789711.4017682,-757.8125,-701.66015625,-493.1640625,-1000.0,-525.390625
1575789711.4017682,-754.8828125,-628.41796875,-842.28515625,187.01171875,216.30859375
1575789711.4017682,-754.8828125,-600.09765625,-1000.0,830.56640625,-329.58984375
1575789711.4017682,-757.8125,-672.36328125,-801.26953125,-716.30859375,-1000.0
1575789711.4017682,-757.8125,-723.6328125,-413.57421875,-1000.0,-714.35546875
1575789711.4017682,-755.37109375,-660.64453125,-660.64453125,-192.87109375,623.53515625
1575789711.4017682,-754.8828125,-592.7734375,-1000.0,-876.46484375,360.3515625
1575789711.4017682,-759.765625,-640.625,-799.8046875,-4.39453125,-673.33984375
1575789711.4017682,-759.765625,-711.9140625,-380.859375,-1000.0,-635.7421875
1575789711.4017682,-756.34765625,-667.48046875,-590.8203125,-424.31640625,-156.25
1575789711.4017682,-752.44140625,-596.6796875,-972.16796875,-901.85546875,390.625
1575789711.4486432,-757.32421875,-613.28125,-1000.0,255.859375,-582.51953125
1575789711.4486432,-760.25390625,-690.91796875,-689.453125,-1000.0,-1000.0
1575789711.4486432,-754.8828125,-687.98828125,-563.96484375,-924.8046875,-612.79296875
1575789711.4486432,-751.953125,-598.14453125,-904.296875,678.22265625,233.3984375
1575789711.4486432,-753.90625,-584.9609375,-1000.0,497.0703125,-289.55078125
1575789711.4486432,-757.8125,-656.73828125,-732.421875,-1000.0,-1000.0
1575789711.4486432,-757.8125,-694.82421875,-417.48046875,-1000.0,-609.86328125
1575789711.4486432,-752.9296875,-634.765625,-740.72265625,19.53125,645.01953125
1575789711.4486432,-753.90625,-593.26171875,-1000.0,963.37890625,911.62109375
1575789711.4486432,-759.27734375,-638.671875,-889.6484375,-491.2109375,-459.9609375
1575789711.4486432,-756.34765625,-708.49609375,-543.9453125,-1000.0,-1000.0
1575789711.4486432,-756.34765625,-660.15625,-690.91796875,-203.125,392.578125
1575789711.4955182,-754.8828125,-595.21484375,-1000.0,-854.98046875,254.8828125
1575789711.4955182,-756.8359375,-631.34765625,-941.40625,131.8359375,-1000.0
1575789711.4955182,-759.27734375,-704.1015625,-551.26953125,-1000.0,-1000.0
1575789711.4955182,-755.37109375,-686.03515625,-558.10546875,-532.71484375,-113.28125
1575789711.4955182,-753.90625,-613.28125,-963.8671875,-938.4765625,628.41796875
1575789711.4955182,-755.859375,-630.37109375,-1000.0,260.7421875,-553.7109375
1575789711.4955182,-758.30078125,-708.0078125,-632.32421875,-1000.0,-1000.0
1575789711.4955182,-753.90625,-721.19140625,-325.1953125,-1000.0,-123.53515625
1575789711.4955182,-754.39453125,-638.671875,-712.890625,520.99609375,855.95703125
1575789711.4955182,-758.7890625,-604.4921875,-1000.0,650.390625,-432.12890625
1575789711.4955182,-758.30078125,-675.78125,-778.3203125,-917.48046875,-1000.0
1575789711.4955182,-756.34765625,-721.19140625,-447.265625,-1000.0,-678.7109375
1575789711.5423932,-755.37109375,-658.69140625,-768.5546875,-117.1875,366.2109375
1575789711.5423932,-753.90625,-613.76953125,-1000.0,-897.94921875,20.99609375
1575789711.5423932,-756.34765625,-665.0390625,-853.02734375,-199.21875,-1000.0
1575789711.5423932,-757.8125,-738.76953125,-430.17578125,-1000.0,-998.53515625
1575789711.5423932,-755.37109375,-689.94140625,-614.74609375,-214.84375,3.41796875
1575789711.5423932,-752.44140625,-610.3515625,-1000.0,-838.8671875,527.34375
1575789711.5423932,-754.39453125,-645.99609375,-887.20703125,246.09375,-811.03515625
1575789711.5423932,-759.765625,-723.14453125,-377.44140625,-1000.0,-450.1953125
1575789711.5423932,-760.25390625,-694.82421875,-512.6953125,-633.30078125,620.60546875
1575789711.5423932,-752.44140625,-611.81640625,-973.6328125,-975.5859375,161.1328125
1575789711.5423932,-753.41796875,-617.1875,-1000.0,324.70703125,-696.2890625
1575789711.5423932,-758.30078125,-692.87109375,-692.3828125,-1000.0,-1000.0
1575789711.5892682,-757.8125,-716.796875,-515.625,-1000.0,-701.171875
1575789711.5892682,-753.90625,-644.53125,-840.8203125,309.08203125,138.18359375
1575789711.5892682,-752.9296875,-619.140625,-1000.0,826.171875,-291.015625
1575789711.5892682,-758.7890625,-680.6640625,-839.35546875,-743.65234375,-1000.0
1575789711.5892682,-757.32421875,-731.93359375,-507.32421875,-1000.0,-823.2421875
1575789711.5892682,-751.46484375,-672.36328125,-721.19140625,-187.01171875,393.06640625
1575789711.5892682,-751.46484375,-615.72265625,-1000.0,-883.30078125,999.51171875
1575789711.5892682,-757.8125,-662.109375,-872.0703125,-66.40625,-54.19921875
1575789711.5892682,-758.30078125,-711.9140625,-478.515625,-1000.0,-1000.0
1575789711.5892682,-753.90625,-670.8984375,-627.9296875,-314.94140625,-283.69140625
1575789711.5892682,-752.9296875,-607.421875,-991.2109375,-863.76953125,386.71875
1575789711.5892682,-759.27734375,-619.62890625,-997.0703125,251.46484375,-664.55078125
1575789711.6361432,-758.30078125,-695.80078125,-662.109375,-1000.0,-1000.0
1575789711.6361432,-754.39453125,-697.265625,-530.2734375,-782.71484375,-411.1328125
1575789711.6361432,-755.859375,-618.1640625,-873.53515625,869.62890625,542.96875
1575789711.6361432,-759.27734375,-608.88671875,-1000.0,438.96484375,-397.94921875
1575789711.6361432,-761.23046875,-687.5,-774.4140625,-1000.0,-1000.0
1575789711.6361432,-753.90625,-726.5625,-390.625,-1000.0,-378.41796875
1575789711.6361432,-750.9765625,-647.4609375,-658.203125,136.23046875,996.58203125
1575789711.6361432,-757.8125,-599.609375,-1000.0,925.78125,202.1484375
1575789711.6361432,-758.30078125,-665.0390625,-868.1640625,-582.51953125,-1000.0
1575789711.6361432,-755.859375,-731.4453125,-392.578125,-1000.0,-779.296875
1575789711.6361432,-756.8359375,-672.36328125,-608.3984375,-195.3125,585.44921875
1575789711.6361432,-754.39453125,-610.3515625,-1000.0,-865.72265625,95.21484375
1575789711.6830182,-756.34765625,-655.76171875,-936.03515625,40.52734375,-1000.0
1575789711.6830182,-759.27734375,-729.00390625,-479.98046875,-1000.0,-895.99609375
1575789711.6830182,-758.7890625,-692.3828125,-552.24609375,-428.7109375,62.01171875
1575789711.6830182,-754.8828125,-605.46875,-1000.0,-898.92578125,261.71875
1575789711.6830182,-755.37109375,-626.46484375,-1000.0,255.37109375,-903.80859375
1575789711.6830182,-759.765625,-707.03125,-567.87109375,-1000.0,-777.34375
1575789711.6830182,-757.32421875,-706.54296875,-397.4609375,-925.78125,742.67578125
1575789711.6830182,-753.41796875,-625.0,-854.98046875,672.8515625,730.46875
1575789711.6830182,-752.9296875,-604.00390625,-1000.0,589.35546875,-586.42578125
1575789711.6830182,-757.32421875,-674.31640625,-623.53515625,-956.0546875,-888.18359375
1575789711.6830182,-761.23046875,-708.0078125,-362.3046875,-1000.0,-593.26171875
1575789711.6830182,-756.34765625,-640.625,-793.45703125,-8.30078125,66.40625
1575789711.7298932,-753.90625,-601.07421875,-1000.0,-942.87109375,-252.9296875
1575789711.7298932,-758.30078125,-655.2734375,-863.28125,-333.984375,-1000.0
1575789711.7298932,-759.27734375,-716.30859375,-515.13671875,-1000.0,-998.046875
1575789711.7298932,-755.37109375,-671.875,-700.1953125,-210.9375,-130.37109375
1575789711.7298932,-750.48828125,-615.234375,-1000.0,-843.75,155.2734375
1575789711.7298932,-755.859375,-647.4609375,-923.828125,213.37890625,-729.98046875
1575789711.7298932,-761.23046875,-712.40234375,-501.46484375,-1000.0,-1000.0
1575789711.7298932,-756.8359375,-685.546875,-562.5,-544.43359375,-362.3046875
1575789711.7298932,-750.0,-615.234375,-988.28125,-930.6640625,403.3203125
1575789711.7298932,-754.39453125,-622.55859375,-960.9375,254.39453125,41.50390625
1575789711.7298932,-761.23046875,-679.6875,-628.41796875,-1000.0,-992.67578125
1575789711.7298932,-757.32421875,-693.359375,-526.3671875,-1000.0,-698.2421875
1575789711.7767682,-752.44140625,-616.69921875,-853.515625,458.984375,801.26953125
1575789711.7767682,-754.8828125,-588.37890625,-1000.0,689.453125,86.42578125
1575789711.7767682,-758.30078125,-655.2734375,-773.4375,-889.16015625,-1000.0
1575789711.7767682,-756.8359375,-699.70703125,-416.015625,-1000.0,-891.11328125
1575789711.7767682,-753.41796875,-628.90625,-696.77734375,-161.62109375,443.359375
1575789711.7767682,-754.39453125,-581.54296875,-1000.0,-897.4609375,542.48046875
1575789711.7767682,-758.30078125,-643.06640625,-867.1875,-161.62109375,-887.20703125
1575789711.7767682,-757.32421875,-714.35546875,-477.5390625,-1000.0,-1000.0
1575789711.7767682,-754.39453125,-688.96484375,-499.51171875,-215.33203125,189.453125
1575789711.7767682,-756.34765625,-610.3515625,-906.25,-837.40234375,729.4921875
1575789711.7767682,-758.30078125,-617.1875,-1000.0,242.1875,-727.5390625
1575789711.7767682,-756.34765625,-696.77734375,-552.734375,-1000.0,-1000.0
1575789711.8236432,-755.37109375,-687.01171875,-495.1171875,-701.66015625,-127.44140625
1575789711.8236432,-754.39453125,-609.375,-938.96484375,958.0078125,442.3828125
1575789711.8236432,-755.859375,-602.05078125,-1000.0,360.83984375,-622.0703125
1575789711.8236432,-757.32421875,-687.01171875,-681.640625,-1000.0,-1000.0
1575789711.8236432,-757.8125,-722.65625,-394.53125,-1000.0,-480.95703125
1575789711.8236432,-754.39453125,-638.671875,-794.43359375,237.79296875,832.03125
1575789711.8236432,-753.41796875,-602.05078125,-1000.0,833.49609375,144.04296875
1575789711.8236432,-755.859375,-674.8046875,-731.93359375,-723.6328125,-1000.0
1575789711.8236432,-757.32421875,-730.46875,-283.69140625,-1000.0,-74.70703125
1575789711.8236432,-755.859375,-656.73828125,-692.87109375,-194.3359375,957.51953125
1575789711.8236432,-752.9296875,-601.5625,-1000.0,-870.60546875,-214.84375
1575789711.8236432,-759.27734375,-656.73828125,-890.625,0.48828125,-1000.0
1575789711.8705182,-760.25390625,-724.609375,-539.0625,-1000.0,-1000.0
1575789711.8705182,-755.37109375,-685.546875,-665.52734375,-328.125,-333.984375
1575789711.8705182,-752.44140625,-613.28125,-1000.0,-861.81640625,-9.765625
1575789711.8705182,-755.859375,-637.6953125,-983.88671875,251.46484375,-799.31640625
1575789711.8705182,-759.765625,-717.28515625,-639.16015625,-1000.0,-1000.0
1575789711.8705182,-756.34765625,-720.703125,-495.60546875,-786.62109375,-233.3984375
1575789711.8705182,-752.44140625,-644.53125,-892.578125,862.79296875,794.921875
1575789711.8705182,-754.8828125,-638.671875,-962.890625,524.4140625,285.64453125
1575789711.8705182,-761.23046875,-708.0078125,-568.359375,-987.3046875,-589.84375
1575789711.8705182,-759.765625,-728.515625,-472.16796875,-1000.0,-816.89453125
1575789711.8705182,-754.39453125,-655.2734375,-822.265625,107.421875,96.6796875
1575789711.8705182,-753.90625,-621.09375,-1000.0,-961.9140625,-173.33984375
1575789711.9173932,-757.8125,-681.15234375,-870.1171875,-411.1328125,-1000.0
1575789711.9173932,-757.32421875,-736.328125,-532.2265625,-1000.0,-1000.0
1575789711.9173932,-754.39453125,-685.546875,-709.9609375,-206.0546875,65.91796875
1575789711.9173932,-752.44140625,-626.46484375,-1000.0,-847.65625,371.09375
1575789711.9173932,-757.8125,-655.2734375,-941.89453125,143.06640625,-924.8046875
1575789711.9173932,-757.32421875,-724.12109375,-526.85546875,-1000.0,-1000.0
1575789711.9173932,-752.9296875,-708.984375,-458.49609375,-441.40625,144.53125
1575789711.9173932,-752.44140625,-634.765625,-853.02734375,-891.11328125,-875.9765625
1575789711.9173932,-759.765625,-632.32421875,-1000.0,252.9296875,-5.859375
1575789711.9173932,-760.25390625,-706.54296875,-719.23828125,-1000.0,-1000.0
1575789711.9173932,-756.8359375,-718.26171875,-501.46484375,-928.22265625,-396.97265625
1575789711.9173932,-754.39453125,-642.08984375,-839.35546875,662.109375,639.6484375
1575789711.9642682,-757.8125,-616.69921875,-1000.0,643.5546875,-389.6484375
1575789711.9642682,-760.25390625,-683.10546875,-803.7109375,-920.8984375,-1000.0
1575789711.9642682,-757.8125,-722.16796875,-462.40234375,-1000.0,-486.81640625
1575789711.9642682,-755.859375,-652.83203125,-752.44140625,-47.8515625,658.69140625
1575789711.9642682,-752.9296875,-613.76953125,-1000.0,-882.32421875,-92.7734375
1575789711.9642682,-755.859375,-671.38671875,-867.1875,-208.49609375,-1000.0
1575789711.9642682,-757.32421875,-735.83984375,-309.08203125,-1000.0,-433.10546875
1575789711.9642682,-755.37109375,-681.15234375,-486.328125,-216.30859375,-988.28125
1575789711.9642682,-753.90625,-604.00390625,-1000.0,-837.40234375,173.828125
1575789711.9642682,-755.859375,-647.4609375,-945.3125,246.09375,-1000.0
1575789711.9642682,-757.32421875,-723.14453125,-544.921875,-1000.0,-992.67578125
1575789711.9642682,-754.8828125,-697.75390625,-582.51953125,-569.82421875,33.203125
1575789712.0111432,-752.44140625,-622.0703125,-983.3984375,-937.01171875,375.9765625
1575789712.0111432,-752.9296875,-622.0703125,-989.2578125,302.734375,-736.328125
1575789712.0111432,-757.32421875,-691.89453125,-617.1875,-1000.0,-1000.0
1575789712.0111432,-759.27734375,-703.125,-489.74609375,-1000.0,-663.0859375
1575789712.0111432,-754.39453125,-624.51171875,-867.67578125,382.32421875,336.42578125
1575789712.0111432,-751.46484375,-608.3984375,-1000.0,815.91796875,-184.5703125
1575789712.0111432,-758.7890625,-673.828125,-644.04296875,-753.90625,-586.9140625
1575789712.0111432,-762.20703125,-707.51953125,-401.3671875,-1000.0,-244.140625
1575789712.0111432,-755.859375,-645.01953125,-758.30078125,-172.8515625,62.98828125
1575789712.0111432,-754.39453125,-599.12109375,-1000.0,-874.51171875,-136.23046875
1575789712.0111432,-758.7890625,-647.94921875,-889.6484375,-74.21875,-975.09765625
1575789712.0111432,-758.7890625,-704.58984375,-518.06640625,-1000.0,-1000.0
1575789712.0580182,-754.8828125,-668.45703125,-657.71484375,-222.16796875,-294.921875
1575789712.0580182,-752.44140625,-610.3515625,-1000.0,-832.51953125,515.625
1575789712.0580182,-758.7890625,-633.30078125,-988.76953125,244.62890625,-315.4296875
1575789712.0580182,-759.27734375,-703.61328125,-630.37109375,-1000.0,-1000.0
1575789712.0580182,-755.859375,-700.68359375,-517.578125,-660.15625,-493.65234375
1575789712.0580182,-752.9296875,-619.62890625,-890.13671875,-996.09375,968.26171875
1575789712.0580182,-754.8828125,-609.375,-1000.0,449.70703125,266.6015625
1575789712.0580182,-760.25390625,-687.5,-725.09765625,-1000.0,-1000.0
1575789712.0580182,-757.8125,-705.56640625,-479.98046875,-1000.0,-774.90234375
1575789712.0580182,-752.44140625,-638.18359375,-737.3046875,229.00390625,567.87109375
1575789712.0580182,-756.8359375,-599.609375,-1000.0,951.66015625,64.94140625
1575789712.0580182,-759.27734375,-651.3671875,-884.27734375,-569.82421875,-1000.0
1575789712.1048932,-756.34765625,-713.37890625,-487.79296875,-1000.0,-895.01953125
1575789712.1048932,-753.90625,-657.2265625,-672.8515625,-199.21875,405.76171875
1575789712.1048932,-753.90625,-591.796875,-1000.0,-856.4453125,208.0078125
1575789712.1048932,-757.8125,-632.32421875,-944.82421875,69.3359375,-1000.0
1575789712.1048932,-756.8359375,-708.984375,-518.5546875,-1000.0,-940.91796875
1575789712.1048932,-753.90625,-685.05859375,-524.90234375,-335.9375,368.1640625
1575789712.1048932,-752.44140625,-612.3046875,-968.26171875,-855.95703125,908.203125
1575789712.1048932,-756.8359375,-624.51171875,-1000.0,245.1171875,-458.0078125
1575789712.1048932,-757.8125,-708.0078125,-525.390625,-1000.0,-1000.0
1575789712.1048932,-756.34765625,-711.9140625,-343.26171875,-844.23828125,233.3984375
1575789712.1048932,-756.34765625,-614.74609375,-863.76953125,786.62109375,820.80078125
1575789712.1048932,-754.8828125,-601.07421875,-1000.0,570.3125,-564.453125
1575789712.1517682,-758.30078125,-680.17578125,-736.328125,-965.8203125,-1000.0
1575789712.1517682,-757.32421875,-709.9609375,-480.95703125,-1000.0,-565.4296875
1575789712.1517682,-755.859375,-638.18359375,-804.19921875,65.91796875,270.99609375
1575789712.1517682,-754.8828125,-609.86328125,-1000.0,-942.87109375,-217.28515625
1575789712.1517682,-757.32421875,-670.41015625,-833.984375,-365.72265625,-1000.0
1575789712.1517682,-758.30078125,-724.12109375,-422.36328125,-1000.0,-744.140625
1575789712.1517682,-754.39453125,-678.22265625,-624.51171875,-212.40234375,605.95703125
1575789712.1517682,-752.44140625,-619.62890625,-1000.0,-840.8203125,510.25390625
1575789712.1517682,-756.34765625,-659.1796875,-826.66015625,218.26171875,-597.16796875
1575789712.1517682,-760.25390625,-722.65625,-390.13671875,-1000.0,-667.96875
1575789712.1517682,-758.30078125,-680.6640625,-565.4296875,-456.0546875,-270.5078125
1575789712.1517682,-754.8828125,-596.6796875,-961.9140625,-886.71875,136.71875
1575789712.1986432,-758.30078125,-608.88671875,-1000.0,248.53515625,-635.25390625
1575789712.1986432,-761.71875,-682.6171875,-714.35546875,-1000.0,-1000.0
1575789712.1986432,-757.8125,-691.40625,-546.38671875,-954.1015625,-665.52734375
1575789712.1986432,-754.39453125,-619.140625,-884.765625,611.81640625,306.640625
1575789712.1986432,-753.90625,-601.5625,-1000.0,713.8671875,-134.765625
1575789712.1986432,-757.8125,-670.8984375,-738.28125,-878.41796875,-1000.0
1575789712.1986432,-757.8125,-709.47265625,-414.55078125,-1000.0,-629.8828125
1575789712.1986432,-753.41796875,-655.2734375,-703.61328125,-50.78125,651.3671875
1575789712.1986432,-755.37109375,-615.234375,-1000.0,-851.07421875,-995.60546875
1575789712.1986432,-760.25390625,-653.80859375,-919.43359375,-108.88671875,-310.05859375
1575789712.1986432,-757.8125,-716.796875,-570.80078125,-1000.0,-1000.0
1575789712.1986432,-755.859375,-674.8046875,-669.43359375,-223.6328125,189.94140625
1575789712.2455182,-752.9296875,-613.28125,-1000.0,-831.54296875,368.65234375
1575789712.2455182,-757.32421875,-645.5078125,-986.81640625,245.60546875,-907.2265625
1575789712.2455182,-758.7890625,-716.796875,-624.0234375,-1000.0,-1000.0
1575789712.2455182,-755.859375,-704.58984375,-565.91796875,-557.12890625,-151.85546875
1575789712.2455182,-752.9296875,-622.0703125,-953.125,-928.22265625,768.06640625
1575789712.2455182,-755.859375,-623.046875,-1000.0,400.87890625,-381.34765625
1575789712.2455182,-759.27734375,-692.3828125,-667.48046875,-1000.0,-1000.0
1575789712.2455182,-754.39453125,-714.84375,-332.03125,-1000.0,-160.64453125
1575789712.2455182,-753.41796875,-636.71875,-689.94140625,421.875,938.4765625
1575789712.2455182,-755.859375,-594.23828125,-1000.0,928.7109375,-284.66796875
1575789712.2455182,-757.32421875,-663.0859375,-813.4765625,-606.4453125,-1000.0
1575789712.2455182,-757.32421875,-711.42578125,-466.30859375,-1000.0,-702.1484375
1575789712.2923932,-754.8828125,-648.4375,-752.9296875,-170.8984375,559.5703125
1575789712.2923932,-750.9765625,-601.5625,-1000.0,-849.12109375,259.27734375
1575789712.2923932,-755.859375,-653.3203125,-878.90625,26.85546875,-1000.0
1575789712.2923932,-759.27734375,-714.84375,-452.63671875,-1000.0,-1000.0
1575789712.2923932,-754.39453125,-675.29296875,-604.00390625,-233.3984375,-15.13671875
1575789712.2923932,-751.46484375,-612.3046875,-1000.0,-825.68359375,712.890625
1575789712.2923932,-757.32421875,-638.18359375,-956.54296875,242.1875,-656.73828125
1575789712.2923932,-760.7421875,-703.61328125,-584.9609375,-1000.0,-479.98046875
1575789712.2923932,-756.34765625,-691.40625,-552.24609375,-678.22265625,590.33203125
1575789712.2923932,-752.44140625,-612.3046875,-956.54296875,982.421875,286.1328125
1575789712.2923932,-752.9296875,-617.1875,-975.09765625,508.7890625,-545.41015625
1575789712.2923932,-758.7890625,-695.3125,-563.4765625,-990.234375,-1000.0
1575789712.3392682,-761.23046875,-696.77734375,-456.0546875,-1000.0,-736.81640625
1575789712.3392682,-754.39453125,-620.60546875,-819.82421875,183.10546875,176.26953125
1575789712.3392682,-753.90625,-595.21484375,-1000.0,-962.40234375,-94.23828125
1575789712.3392682,-758.7890625,-648.92578125,-865.72265625,-431.15234375,-980.95703125
1575789712.3392682,-757.8125,-693.84765625,-501.953125,-1000.0,-947.75390625
1575789712.3392682,-753.90625,-645.5078125,-674.8046875,-207.03125,425.78125
1575789712.3392682,-753.41796875,-597.16796875,-1000.0,-844.7265625,757.8125
1575789712.3392682,-760.7421875,-627.9296875,-911.62109375,140.625,-686.5234375
1575789712.3392682,-761.71875,-688.4765625,-547.36328125,-1000.0,-1000.0
1575789712.3392682,-755.859375,-661.62109375,-626.46484375,-374.51171875,-365.72265625
1575789712.3392682,-751.953125,-589.35546875,-967.7734375,-863.28125,911.62109375
1575789712.3392682,-756.8359375,-601.07421875,-1000.0,246.09375,277.83203125
1575789712.3861432,-758.30078125,-668.45703125,-698.73046875,-1000.0,-1000.0
1575789712.3861432,-754.8828125,-681.15234375,-504.39453125,-877.44140625,-554.6875
